BEGIN_SCAN_DATA
	FORMAT=CC-Export V1.9                  
	FILE_CREATION_DATE=11-Mar-2022 18:11:44
	LAST_MODIFIED=11-Mar-2022 18:11:44
	BEGIN_SCAN  1
		TASK_NAME=tba PDD Profiles
		PROGRAM=WaterTankScans
		COMMENT=FBF_SanPietro
		MEAS_DATE=08-Feb-2021 09:38:10
		LINAC=MRIdian
		MODALITY=X
		ISOCENTER=900.00
		INPLANE_AXIS=Y
		CROSSPLANE_AXIS=X
		DEPTH_AXIS=Depth
		INPLANE_AXIS_DIR=TARGET_GUN
		CROSSPLANE_AXIS_DIR=LEFT_RIGHT
		DEPTH_AXIS_DIR=UP_DOWN
		ENERGY=6.00
		NOMINAL_DMAX=15.00
		SSD=850.00
		SCD=450.00
		WEDGE_ANGLE=0.00
		FIELD_INPLANE=149.40
		FIELD_CROSSPLANE=149.40
		FIELD_TYPE=RECTANGULAR
		GANTRY=0.00
		GANTRY_UPRIGHT_POSITION=0
		GANTRY_ROTATION=CW
		COLL_ANGLE=0.00
		COLL_OFFSET_INPLANE=0.00
		COLL_OFFSET_CROSSPLANE=0.00
		SCAN_DEVICE=BeamScan
		SCAN_DEVICE_SETUP=BARA_LEFT_RIGHT
		ELECTROMETER=BeamScan
		RANGE_FIELD=LOW
		RANGE_REFERENCE=MEDIUM
		DETECTOR=THIMBLE_CHAMBER
		DETECTOR_RADIUS=2.40
		DETECTOR_NAME=A28MR
		DETECTOR_SN=-
		DETECTOR_CALIBRATION=588000000.00
		DETECTOR_IS_CALIBRATED=0
		DETECTOR_REFERENCE=THIMBLE_CHAMBER
		DETECTOR_REFERENCE_RADIUS=2.75
		DETECTOR_REFERENCE_NAME=A28MR
		DETECTOR_REFERENCE_SN=—
		DETECTOR_REFERENCE_IS_CALIBRATED=0
		DETECTOR_REFERENCE_CALIBRATION=303000000.00
		DETECTOR_HV=300.0
		DETECTOR_REFERENCE_HV=300.0
		DETECTOR_ORIENTATION=HORIZONTAL
		FILTER=FFF
		SCAN_SPEED_PROFILE=10.00
		SCAN_PROF_SPEED_DEP=DEPTH
		SCAN_SPEED_PDD=0.00
		SCAN_PDD_SPEED_DEP=ENERGY
		DETECTOR_TYPE=A28MR
		REF_FIELD_DEPTH=220.00
		REF_FIELD_DEFINED=ISOCENTER
		REF_FIELD_INPLANE=100.00
		REF_FIELD_CROSSPLANE=100.00
		REF_SCAN_POSITIONS=-85.00;-84.00;-83.00;-82.00;-81.00;-80.00;-79.00;-78.00;-77.00;-76.00;-75.00;-74.00;-73.00;-72.00;-71.00;-70.00;-69.00;-68.00;-67.00;-66.00;-65.00;-64.00;-63.00;-62.00;-61.00;-60.00;-59.00;-58.00;-57.00;-56.00;-55.00;-54.00;-53.00;-52.00;-51.00;-50.00;-49.00;-48.00;-47.00;-46.00;-45.00;-44.00;-43.00;-42.00;-41.00;-40.00;-39.00;-38.00;-37.00;-36.00;-35.00;-34.00;-33.00;-32.00;-31.00;-30.00;-29.00;-28.00;-27.00;-26.00;-25.00;-24.00;-23.00;-22.00;-21.00;-20.00;-19.00;-18.00;-17.00;-16.00;-15.00;-14.00;-13.00;-12.00;-11.00;-10.00;-9.00;-8.00;-7.00;-6.00;-5.00;-4.00;-3.00;-2.00;-1.00;0.00;1.00;2.00;3.00;4.00;5.00;6.00;7.00;8.00;9.00;10.00;11.00;12.00;13.00;14.00;15.00;16.00;17.00;18.00;19.00;20.00;21.00;22.00;23.00;24.00;25.00;26.00;27.00;28.00;29.00;30.00;31.00;32.00;33.00;34.00;35.00;36.00;37.00;38.00;39.00;40.00;41.00;42.00;43.00;44.00;45.00;46.00;47.00;48.00;49.00;50.00;51.00;52.00;53.00;54.00;55.00;56.00;57.00;58.00;59.00;60.00;61.00;62.00;63.00;64.00;65.00;66.00;67.00;68.00;69.00;70.00;71.00;72.00;73.00;74.00;75.00;76.00;77.00;78.00;79.00;80.00;81.00;82.00;83.00;84.00;85.00;
		REF_OVERSCAN_FACTOR=1.00
		SCAN_CURVETYPE=CROSSPLANE_PROFILE
		SCAN_DEPTH=20.00
		SCAN_OFFAXIS_INPLANE=0.00
		SCAN_OFFAXIS_CROSSPLANE=0.00
		SCAN_ANGLE=0.00
		SCAN_DIAGONAL=NOT_DIAGONAL
		SCAN_DIRECTION=POSITIVE
		MEAS_MEDIUM=WATER
		MEAS_PRESET=MEAS_CONTINUOUS_REFERENCE_SCAN
		MEAS_TIME=0.100
		MEAS_UNIT=A.U.
		INCLINATION_ANGLE=0.00
		PRESSURE=1013.25
		TEMPERATURE=20.00
		NORM_TEMPERATURE=20.00
		CORRECTION_FACTOR=1.0000
		EXPECTED_MAX_DOSE_RATE=3.00
		EPOM_DEPTH_SHIFT=0.2
		EPOM_MODE=SHIFT_PROTOCOL
		CORRECTIONS=CAX_CORR;INTERPOLATED_CORR;SYMMETRY_CORR;
		BEGIN_DATA
			-120.00		7.9292E+00
			-119.50		8.0345E+00
			-119.00		8.1395E+00
			-118.50		8.1990E+00
			-118.00		8.2428E+00
			-117.50		8.2922E+00
			-117.00		8.3587E+00
			-116.50		8.4289E+00
			-116.00		8.4930E+00
			-115.50		8.5965E+00
			-115.00		8.7074E+00
			-114.50		8.7675E+00
			-114.00		8.8274E+00
			-113.50		8.9319E+00
			-113.00		9.0378E+00
			-112.50		9.1532E+00
			-112.00		9.2675E+00
			-111.50		9.3556E+00
			-111.00		9.4461E+00
			-110.50		9.5596E+00
			-110.00		9.6756E+00
			-109.50		9.7635E+00
			-109.00		9.8463E+00
			-108.50		9.9388E+00
			-108.00		10.038E+00
			-107.50		10.150E+00
			-107.00		10.252E+00
			-106.50		10.354E+00
			-106.00		10.479E+00
			-105.50		10.623E+00
			-105.00		10.751E+00
			-104.50		10.852E+00
			-104.00		10.969E+00
			-103.50		11.116E+00
			-103.00		11.254E+00
			-102.50		11.413E+00
			-102.00		11.591E+00
			-101.50		11.740E+00
			-101.00		11.863E+00
			-100.50		11.973E+00
			-100.00		12.094E+00
			-99.50		12.221E+00
			-99.00		12.357E+00
			-98.50		12.569E+00
			-98.00		12.782E+00
			-97.50		12.958E+00
			-97.00		13.139E+00
			-96.50		13.340E+00
			-96.00		13.538E+00
			-95.50		13.725E+00
			-95.00		13.901E+00
			-94.50		14.059E+00
			-94.00		14.229E+00
			-93.50		14.416E+00
			-93.00		14.613E+00
			-92.50		14.904E+00
			-92.00		15.208E+00
			-91.50		15.528E+00
			-91.00		15.836E+00
			-90.50		16.038E+00
			-90.00		16.243E+00
			-89.50		16.494E+00
			-89.00		16.739E+00
			-88.50		17.073E+00
			-88.00		17.431E+00
			-87.50		17.772E+00
			-87.00		18.117E+00
			-86.50		18.547E+00
			-86.00		18.982E+00
			-85.50		19.416E+00
			-85.00		19.858E+00
			-84.50		20.331E+00
			-84.00		20.811E+00
			-83.50		21.372E+00
			-83.00		21.959E+00
			-82.50		22.702E+00
			-82.00		23.487E+00
			-81.50		24.306E+00
			-81.00		25.139E+00
			-80.50		26.264E+00
			-80.00		27.458E+00
			-79.50		28.860E+00
			-79.00		30.372E+00
			-78.50		32.506E+00
			-78.00		34.889E+00
			-77.50		38.364E+00
			-77.00		42.362E+00
			-76.50		48.873E+00
			-76.00		56.207E+00
			-75.50		67.339E+00
			-75.00		79.416E+00
			-74.50		95.277E+00
			-74.00		112.29E+00
			-73.50		132.59E+00
			-73.00		153.54E+00
			-72.50		176.24E+00
			-72.00		199.19E+00
			-71.50		222.30E+00
			-71.00		245.26E+00
			-70.50		266.71E+00
			-70.00		287.52E+00
			-69.50		305.46E+00
			-69.00		322.47E+00
			-68.50		335.62E+00
			-68.00		347.83E+00
			-67.50		356.23E+00
			-67.00		363.79E+00
			-66.50		369.43E+00
			-66.00		374.65E+00
			-65.50		378.32E+00
			-65.00		381.58E+00
			-64.50		383.92E+00
			-64.00		386.14E+00
			-63.50		388.33E+00
			-63.00		390.45E+00
			-62.50		392.16E+00
			-62.00		393.88E+00
			-61.50		395.55E+00
			-61.00		397.15E+00
			-60.50		398.60E+00
			-60.00		399.96E+00
			-59.50		400.93E+00
			-59.00		401.94E+00
			-58.50		403.58E+00
			-58.00		405.23E+00
			-57.50		406.39E+00
			-57.00		407.44E+00
			-56.50		408.32E+00
			-56.00		409.38E+00
			-55.50		411.01E+00
			-55.00		412.47E+00
			-54.50		413.04E+00
			-54.00		413.63E+00
			-53.50		414.83E+00
			-53.00		416.08E+00
			-52.50		417.15E+00
			-52.00		418.14E+00
			-51.50		419.27E+00
			-51.00		420.50E+00
			-50.50		421.63E+00
			-50.00		422.66E+00
			-49.50		423.64E+00
			-49.00		424.64E+00
			-48.50		425.41E+00
			-48.00		426.14E+00
			-47.50		427.21E+00
			-47.00		428.39E+00
			-46.50		429.74E+00
			-46.00		431.04E+00
			-45.50		431.77E+00
			-45.00		432.46E+00
			-44.50		433.46E+00
			-44.00		434.44E+00
			-43.50		435.33E+00
			-43.00		436.26E+00
			-42.50		437.38E+00
			-42.00		438.50E+00
			-41.50		439.40E+00
			-41.00		440.24E+00
			-40.50		441.08E+00
			-40.00		441.98E+00
			-39.50		442.92E+00
			-39.00		443.74E+00
			-38.50		444.46E+00
			-38.00		445.27E+00
			-37.50		446.08E+00
			-37.00		446.91E+00
			-36.50		448.04E+00
			-36.00		449.14E+00
			-35.50		449.93E+00
			-35.00		450.69E+00
			-34.50		451.32E+00
			-34.00		451.96E+00
			-33.50		452.85E+00
			-33.00		453.73E+00
			-32.50		454.83E+00
			-32.00		455.99E+00
			-31.50		456.69E+00
			-31.00		457.34E+00
			-30.50		458.12E+00
			-30.00		458.77E+00
			-29.50		459.35E+00
			-29.00		460.14E+00
			-28.50		461.26E+00
			-28.00		462.27E+00
			-27.50		463.03E+00
			-27.00		463.84E+00
			-26.50		464.66E+00
			-26.00		465.39E+00
			-25.50		466.06E+00
			-25.00		466.77E+00
			-24.50		467.36E+00
			-24.00		467.96E+00
			-23.50		468.57E+00
			-23.00		469.20E+00
			-22.50		470.16E+00
			-22.00		471.17E+00
			-21.50		471.72E+00
			-21.00		472.17E+00
			-20.50		472.65E+00
			-20.00		473.18E+00
			-19.50		473.54E+00
			-19.00		473.92E+00
			-18.50		474.79E+00
			-18.00		475.72E+00
			-17.50		476.22E+00
			-17.00		476.57E+00
			-16.50		476.82E+00
			-16.00		477.12E+00
			-15.50		477.83E+00
			-15.00		478.58E+00
			-14.50		479.05E+00
			-14.00		479.45E+00
			-13.50		479.73E+00
			-13.00		480.09E+00
			-12.50		480.70E+00
			-12.00		481.20E+00
			-11.50		481.26E+00
			-11.00		481.45E+00
			-10.50		482.02E+00
			-10.00		482.51E+00
			-9.50		482.64E+00
			-9.00		482.80E+00
			-8.50		483.20E+00
			-8.00		483.62E+00
			-7.50		484.07E+00
			-7.00		484.46E+00
			-6.50		484.59E+00
			-6.00		484.78E+00
			-5.50		485.33E+00
			-5.00		485.79E+00
			-4.50		485.99E+00
			-4.00		486.34E+00
			-3.50		486.71E+00
			-3.00		486.95E+00
			-2.50		487.00E+00
			-2.00		486.99E+00
			-1.50		486.86E+00
			-1.00		486.79E+00
			-0.50		487.04E+00
			0.00		487.26E+00
			0.50		487.04E+00
			1.00		486.79E+00
			1.50		486.86E+00
			2.00		486.99E+00
			2.50		487.00E+00
			3.00		486.95E+00
			3.50		486.71E+00
			4.00		486.34E+00
			4.50		485.99E+00
			5.00		485.79E+00
			5.50		485.33E+00
			6.00		484.78E+00
			6.50		484.59E+00
			7.00		484.46E+00
			7.50		484.07E+00
			8.00		483.62E+00
			8.50		483.20E+00
			9.00		482.80E+00
			9.50		482.64E+00
			10.00		482.51E+00
			10.50		482.02E+00
			11.00		481.45E+00
			11.50		481.26E+00
			12.00		481.20E+00
			12.50		480.70E+00
			13.00		480.09E+00
			13.50		479.73E+00
			14.00		479.45E+00
			14.50		479.05E+00
			15.00		478.58E+00
			15.50		477.83E+00
			16.00		477.12E+00
			16.50		476.82E+00
			17.00		476.57E+00
			17.50		476.22E+00
			18.00		475.72E+00
			18.50		474.79E+00
			19.00		473.92E+00
			19.50		473.54E+00
			20.00		473.18E+00
			20.50		472.65E+00
			21.00		472.17E+00
			21.50		471.72E+00
			22.00		471.17E+00
			22.50		470.16E+00
			23.00		469.20E+00
			23.50		468.57E+00
			24.00		467.96E+00
			24.50		467.36E+00
			25.00		466.77E+00
			25.50		466.06E+00
			26.00		465.39E+00
			26.50		464.66E+00
			27.00		463.84E+00
			27.50		463.03E+00
			28.00		462.27E+00
			28.50		461.26E+00
			29.00		460.14E+00
			29.50		459.35E+00
			30.00		458.77E+00
			30.50		458.12E+00
			31.00		457.34E+00
			31.50		456.69E+00
			32.00		455.99E+00
			32.50		454.83E+00
			33.00		453.73E+00
			33.50		452.85E+00
			34.00		451.96E+00
			34.50		451.32E+00
			35.00		450.69E+00
			35.50		449.93E+00
			36.00		449.14E+00
			36.50		448.04E+00
			37.00		446.91E+00
			37.50		446.08E+00
			38.00		445.27E+00
			38.50		444.46E+00
			39.00		443.74E+00
			39.50		442.92E+00
			40.00		441.98E+00
			40.50		441.08E+00
			41.00		440.24E+00
			41.50		439.40E+00
			42.00		438.50E+00
			42.50		437.38E+00
			43.00		436.26E+00
			43.50		435.33E+00
			44.00		434.44E+00
			44.50		433.46E+00
			45.00		432.46E+00
			45.50		431.77E+00
			46.00		431.04E+00
			46.50		429.74E+00
			47.00		428.39E+00
			47.50		427.21E+00
			48.00		426.14E+00
			48.50		425.41E+00
			49.00		424.64E+00
			49.50		423.64E+00
			50.00		422.66E+00
			50.50		421.63E+00
			51.00		420.50E+00
			51.50		419.27E+00
			52.00		418.14E+00
			52.50		417.15E+00
			53.00		416.08E+00
			53.50		414.83E+00
			54.00		413.63E+00
			54.50		413.04E+00
			55.00		412.47E+00
			55.50		411.01E+00
			56.00		409.38E+00
			56.50		408.32E+00
			57.00		407.44E+00
			57.50		406.39E+00
			58.00		405.23E+00
			58.50		403.58E+00
			59.00		401.94E+00
			59.50		400.93E+00
			60.00		399.96E+00
			60.50		398.60E+00
			61.00		397.15E+00
			61.50		395.55E+00
			62.00		393.88E+00
			62.50		392.16E+00
			63.00		390.45E+00
			63.50		388.33E+00
			64.00		386.14E+00
			64.50		383.92E+00
			65.00		381.58E+00
			65.50		378.32E+00
			66.00		374.65E+00
			66.50		369.43E+00
			67.00		363.79E+00
			67.50		356.23E+00
			68.00		347.83E+00
			68.50		335.62E+00
			69.00		322.47E+00
			69.50		305.46E+00
			70.00		287.52E+00
			70.50		266.71E+00
			71.00		245.26E+00
			71.50		222.30E+00
			72.00		199.19E+00
			72.50		176.24E+00
			73.00		153.54E+00
			73.50		132.59E+00
			74.00		112.29E+00
			74.50		95.277E+00
			75.00		79.416E+00
			75.50		67.339E+00
			76.00		56.207E+00
			76.50		48.873E+00
			77.00		42.362E+00
			77.50		38.364E+00
			78.00		34.889E+00
			78.50		32.506E+00
			79.00		30.372E+00
			79.50		28.860E+00
			80.00		27.458E+00
			80.50		26.264E+00
			81.00		25.139E+00
			81.50		24.306E+00
			82.00		23.487E+00
			82.50		22.702E+00
			83.00		21.959E+00
			83.50		21.372E+00
			84.00		20.811E+00
			84.50		20.331E+00
			85.00		19.858E+00
			85.50		19.416E+00
			86.00		18.982E+00
			86.50		18.547E+00
			87.00		18.117E+00
			87.50		17.772E+00
			88.00		17.431E+00
			88.50		17.073E+00
			89.00		16.739E+00
			89.50		16.494E+00
			90.00		16.243E+00
			90.50		16.038E+00
			91.00		15.836E+00
			91.50		15.528E+00
			92.00		15.208E+00
			92.50		14.904E+00
			93.00		14.613E+00
			93.50		14.416E+00
			94.00		14.229E+00
			94.50		14.059E+00
			95.00		13.901E+00
			95.50		13.725E+00
			96.00		13.538E+00
			96.50		13.340E+00
			97.00		13.139E+00
			97.50		12.958E+00
			98.00		12.782E+00
			98.50		12.569E+00
			99.00		12.357E+00
			99.50		12.221E+00
			100.00		12.094E+00
			100.50		11.973E+00
			101.00		11.863E+00
			101.50		11.740E+00
			102.00		11.591E+00
			102.50		11.413E+00
			103.00		11.254E+00
			103.50		11.116E+00
			104.00		10.969E+00
			104.50		10.852E+00
			105.00		10.751E+00
			105.50		10.623E+00
			106.00		10.479E+00
			106.50		10.354E+00
			107.00		10.252E+00
			107.50		10.150E+00
			108.00		10.038E+00
			108.50		9.9388E+00
			109.00		9.8463E+00
			109.50		9.7635E+00
			110.00		9.6756E+00
			110.50		9.5596E+00
			111.00		9.4461E+00
			111.50		9.3556E+00
			112.00		9.2675E+00
			112.50		9.1532E+00
			113.00		9.0378E+00
			113.50		8.9319E+00
			114.00		8.8274E+00
			114.50		8.7675E+00
			115.00		8.7074E+00
			115.50		8.5965E+00
			116.00		8.4930E+00
			116.50		8.4289E+00
			117.00		8.3587E+00
			117.50		8.2922E+00
			118.00		8.2428E+00
			118.50		8.1990E+00
			119.00		8.1395E+00
			119.50		8.0345E+00
			120.00		7.9292E+00
		END_DATA
	END_SCAN  1
	BEGIN_SCAN  2
		TASK_NAME=tba PDD Profiles
		PROGRAM=WaterTankScans
		COMMENT=FBF_SanPietro
		MEAS_DATE=08-Feb-2021 09:38:10
		LINAC=MRIdian
		MODALITY=X
		ISOCENTER=900.00
		INPLANE_AXIS=Y
		CROSSPLANE_AXIS=X
		DEPTH_AXIS=Depth
		INPLANE_AXIS_DIR=TARGET_GUN
		CROSSPLANE_AXIS_DIR=LEFT_RIGHT
		DEPTH_AXIS_DIR=UP_DOWN
		ENERGY=6.00
		NOMINAL_DMAX=15.00
		SSD=850.00
		SCD=450.00
		WEDGE_ANGLE=0.00
		FIELD_INPLANE=149.40
		FIELD_CROSSPLANE=149.40
		FIELD_TYPE=RECTANGULAR
		GANTRY=0.00
		GANTRY_UPRIGHT_POSITION=0
		GANTRY_ROTATION=CW
		COLL_ANGLE=0.00
		COLL_OFFSET_INPLANE=0.00
		COLL_OFFSET_CROSSPLANE=0.00
		SCAN_DEVICE=BeamScan
		SCAN_DEVICE_SETUP=BARA_LEFT_RIGHT
		ELECTROMETER=BeamScan
		RANGE_FIELD=LOW
		RANGE_REFERENCE=MEDIUM
		DETECTOR=THIMBLE_CHAMBER
		DETECTOR_RADIUS=2.40
		DETECTOR_NAME=A28MR
		DETECTOR_SN=-
		DETECTOR_CALIBRATION=588000000.00
		DETECTOR_IS_CALIBRATED=0
		DETECTOR_REFERENCE=THIMBLE_CHAMBER
		DETECTOR_REFERENCE_RADIUS=2.75
		DETECTOR_REFERENCE_NAME=A28MR
		DETECTOR_REFERENCE_SN=—
		DETECTOR_REFERENCE_IS_CALIBRATED=0
		DETECTOR_REFERENCE_CALIBRATION=303000000.00
		DETECTOR_HV=300.0
		DETECTOR_REFERENCE_HV=300.0
		DETECTOR_ORIENTATION=HORIZONTAL
		FILTER=FFF
		SCAN_SPEED_PROFILE=10.00
		SCAN_PROF_SPEED_DEP=DEPTH
		SCAN_SPEED_PDD=0.00
		SCAN_PDD_SPEED_DEP=ENERGY
		DETECTOR_TYPE=A28MR
		REF_FIELD_DEPTH=220.00
		REF_FIELD_DEFINED=ISOCENTER
		REF_FIELD_INPLANE=100.00
		REF_FIELD_CROSSPLANE=100.00
		REF_SCAN_POSITIONS=-85.00;-84.00;-83.00;-82.00;-81.00;-80.00;-79.00;-78.00;-77.00;-76.00;-75.00;-74.00;-73.00;-72.00;-71.00;-70.00;-69.00;-68.00;-67.00;-66.00;-65.00;-64.00;-63.00;-62.00;-61.00;-60.00;-59.00;-58.00;-57.00;-56.00;-55.00;-54.00;-53.00;-52.00;-51.00;-50.00;-49.00;-48.00;-47.00;-46.00;-45.00;-44.00;-43.00;-42.00;-41.00;-40.00;-39.00;-38.00;-37.00;-36.00;-35.00;-34.00;-33.00;-32.00;-31.00;-30.00;-29.00;-28.00;-27.00;-26.00;-25.00;-24.00;-23.00;-22.00;-21.00;-20.00;-19.00;-18.00;-17.00;-16.00;-15.00;-14.00;-13.00;-12.00;-11.00;-10.00;-9.00;-8.00;-7.00;-6.00;-5.00;-4.00;-3.00;-2.00;-1.00;0.00;1.00;2.00;3.00;4.00;5.00;6.00;7.00;8.00;9.00;10.00;11.00;12.00;13.00;14.00;15.00;16.00;17.00;18.00;19.00;20.00;21.00;22.00;23.00;24.00;25.00;26.00;27.00;28.00;29.00;30.00;31.00;32.00;33.00;34.00;35.00;36.00;37.00;38.00;39.00;40.00;41.00;42.00;43.00;44.00;45.00;46.00;47.00;48.00;49.00;50.00;51.00;52.00;53.00;54.00;55.00;56.00;57.00;58.00;59.00;60.00;61.00;62.00;63.00;64.00;65.00;66.00;67.00;68.00;69.00;70.00;71.00;72.00;73.00;74.00;75.00;76.00;77.00;78.00;79.00;80.00;81.00;82.00;83.00;84.00;85.00;
		REF_OVERSCAN_FACTOR=1.00
		SCAN_CURVETYPE=CROSSPLANE_PROFILE
		SCAN_DEPTH=55.00
		SCAN_OFFAXIS_INPLANE=0.00
		SCAN_OFFAXIS_CROSSPLANE=0.00
		SCAN_ANGLE=0.00
		SCAN_DIAGONAL=NOT_DIAGONAL
		SCAN_DIRECTION=POSITIVE
		MEAS_MEDIUM=WATER
		MEAS_PRESET=MEAS_CONTINUOUS_REFERENCE_SCAN
		MEAS_TIME=0.100
		MEAS_UNIT=A.U.
		INCLINATION_ANGLE=0.00
		PRESSURE=1013.25
		TEMPERATURE=20.00
		NORM_TEMPERATURE=20.00
		CORRECTION_FACTOR=1.0000
		EXPECTED_MAX_DOSE_RATE=3.00
		EPOM_DEPTH_SHIFT=0.2
		EPOM_MODE=SHIFT_PROTOCOL
		CORRECTIONS=SMOOTHED_CORR;CAX_CORR;INTERPOLATED_CORR;SYMMETRY_CORR;
		BEGIN_DATA
			-128.50		9.9689E+00
			-128.00		10.056E+00
			-127.50		10.142E+00
			-127.00		10.223E+00
			-126.50		10.304E+00
			-126.00		10.431E+00
			-125.50		10.573E+00
			-125.00		10.671E+00
			-124.50		10.737E+00
			-124.00		10.804E+00
			-123.50		10.870E+00
			-123.00		10.958E+00
			-122.50		11.089E+00
			-122.00		11.212E+00
			-121.50		11.308E+00
			-121.00		11.402E+00
			-120.50		11.504E+00
			-120.00		11.605E+00
			-119.50		11.725E+00
			-119.00		11.843E+00
			-118.50		11.996E+00
			-118.00		12.160E+00
			-117.50		12.283E+00
			-117.00		12.384E+00
			-116.50		12.503E+00
			-116.00		12.644E+00
			-115.50		12.780E+00
			-115.00		12.903E+00
			-114.50		13.036E+00
			-114.00		13.208E+00
			-113.50		13.379E+00
			-113.00		13.514E+00
			-112.50		13.648E+00
			-112.00		13.806E+00
			-111.50		13.969E+00
			-111.00		14.132E+00
			-110.50		14.297E+00
			-110.00		14.469E+00
			-109.50		14.649E+00
			-109.00		14.861E+00
			-108.50		15.108E+00
			-108.00		15.306E+00
			-107.50		15.411E+00
			-107.00		15.545E+00
			-106.50		15.782E+00
			-106.00		16.017E+00
			-105.50		16.203E+00
			-105.00		16.389E+00
			-104.50		16.594E+00
			-104.00		16.801E+00
			-103.50		17.014E+00
			-103.00		17.230E+00
			-102.50		17.460E+00
			-102.00		17.700E+00
			-101.50		17.961E+00
			-101.00		18.244E+00
			-100.50		18.504E+00
			-100.00		18.723E+00
			-99.50		18.959E+00
			-99.00		19.261E+00
			-98.50		19.562E+00
			-98.00		19.846E+00
			-97.50		20.128E+00
			-97.00		20.451E+00
			-96.50		20.779E+00
			-96.00		21.136E+00
			-95.50		21.500E+00
			-95.00		21.844E+00
			-94.50		22.174E+00
			-94.00		22.515E+00
			-93.50		22.868E+00
			-93.00		23.243E+00
			-92.50		23.659E+00
			-92.00		24.076E+00
			-91.50		24.500E+00
			-91.00		24.930E+00
			-90.50		25.423E+00
			-90.00		25.916E+00
			-89.50		26.425E+00
			-89.00		26.934E+00
			-88.50		27.543E+00
			-88.00		28.183E+00
			-87.50		28.770E+00
			-87.00		29.330E+00
			-86.50		29.992E+00
			-86.00		30.758E+00
			-85.50		31.526E+00
			-85.00		32.290E+00
			-84.50		33.090E+00
			-84.00		34.045E+00
			-83.50		35.020E+00
			-83.00		36.271E+00
			-82.50		37.521E+00
			-82.00		39.063E+00
			-81.50		40.625E+00
			-81.00		42.970E+00
			-80.50		45.548E+00
			-80.00		49.329E+00
			-79.50		53.766E+00
			-79.00		60.081E+00
			-78.50		68.193E+00
			-78.00		78.070E+00
			-77.50		90.624E+00
			-77.00		104.17E+00
			-76.50		120.81E+00
			-76.00		137.61E+00
			-75.50		156.61E+00
			-75.00		175.61E+00
			-74.50		195.23E+00
			-74.00		214.87E+00
			-73.50		234.42E+00
			-73.00		253.93E+00
			-72.50		271.94E+00
			-72.00		289.15E+00
			-71.50		304.23E+00
			-71.00		317.52E+00
			-70.50		328.90E+00
			-70.00		337.47E+00
			-69.50		345.46E+00
			-69.00		351.26E+00
			-68.50		356.87E+00
			-68.00		360.46E+00
			-67.50		364.05E+00
			-67.00		366.43E+00
			-66.50		368.74E+00
			-66.00		371.05E+00
			-65.50		373.36E+00
			-65.00		375.33E+00
			-64.50		377.13E+00
			-64.00		378.75E+00
			-63.50		380.20E+00
			-63.00		381.62E+00
			-62.50		383.01E+00
			-62.00		384.39E+00
			-61.50		385.76E+00
			-61.00		387.11E+00
			-60.50		388.38E+00
			-60.00		389.65E+00
			-59.50		390.85E+00
			-59.00		392.04E+00
			-58.50		393.33E+00
			-58.00		394.64E+00
			-57.50		395.94E+00
			-57.00		397.23E+00
			-56.50		398.46E+00
			-56.00		399.64E+00
			-55.50		400.82E+00
			-55.00		402.01E+00
			-54.50		403.15E+00
			-54.00		404.16E+00
			-53.50		405.16E+00
			-53.00		406.11E+00
			-52.50		407.06E+00
			-52.00		408.21E+00
			-51.50		409.37E+00
			-51.00		410.48E+00
			-50.50		411.58E+00
			-50.00		412.61E+00
			-49.50		413.60E+00
			-49.00		414.58E+00
			-48.50		415.55E+00
			-48.00		416.49E+00
			-47.50		417.39E+00
			-47.00		418.30E+00
			-46.50		419.28E+00
			-46.00		420.27E+00
			-45.50		421.33E+00
			-45.00		422.39E+00
			-44.50		423.33E+00
			-44.00		424.27E+00
			-43.50		425.17E+00
			-43.00		426.07E+00
			-42.50		426.99E+00
			-42.00		427.92E+00
			-41.50		428.83E+00
			-41.00		429.73E+00
			-40.50		430.63E+00
			-40.00		431.52E+00
			-39.50		432.39E+00
			-39.00		433.23E+00
			-38.50		434.07E+00
			-38.00		434.96E+00
			-37.50		435.85E+00
			-37.00		436.80E+00
			-36.50		437.76E+00
			-36.00		438.55E+00
			-35.50		439.31E+00
			-35.00		440.08E+00
			-34.50		440.85E+00
			-34.00		441.71E+00
			-33.50		442.66E+00
			-33.00		443.57E+00
			-32.50		444.42E+00
			-32.00		445.24E+00
			-31.50		445.99E+00
			-31.00		446.72E+00
			-30.50		447.36E+00
			-30.00		447.99E+00
			-29.50		448.64E+00
			-29.00		449.30E+00
			-28.50		450.11E+00
			-28.00		450.95E+00
			-27.50		451.78E+00
			-27.00		452.58E+00
			-26.50		453.32E+00
			-26.00		453.99E+00
			-25.50		454.70E+00
			-25.00		455.46E+00
			-24.50		456.23E+00
			-24.00		457.07E+00
			-23.50		457.87E+00
			-23.00		458.43E+00
			-22.50		458.98E+00
			-22.00		459.37E+00
			-21.50		459.75E+00
			-21.00		460.32E+00
			-20.50		460.91E+00
			-20.00		461.52E+00
			-19.50		462.15E+00
			-19.00		462.67E+00
			-18.50		463.13E+00
			-18.00		463.56E+00
			-17.50		463.98E+00
			-17.00		464.42E+00
			-16.50		464.90E+00
			-16.00		465.38E+00
			-15.50		465.85E+00
			-15.00		466.33E+00
			-14.50		466.82E+00
			-14.00		467.32E+00
			-13.50		467.76E+00
			-13.00		468.18E+00
			-12.50		468.55E+00
			-12.00		468.89E+00
			-11.50		469.23E+00
			-11.00		469.58E+00
			-10.50		469.89E+00
			-10.00		470.18E+00
			-9.50		470.46E+00
			-9.00		470.73E+00
			-8.50		471.00E+00
			-8.00		471.27E+00
			-7.50		471.54E+00
			-7.00		471.78E+00
			-6.50		472.02E+00
			-6.00		472.31E+00
			-5.50		472.61E+00
			-5.00		472.91E+00
			-4.50		473.22E+00
			-4.00		473.48E+00
			-3.50		473.72E+00
			-3.00		473.93E+00
			-2.50		474.10E+00
			-2.00		474.23E+00
			-1.50		474.29E+00
			-1.00		474.33E+00
			-0.50		474.32E+00
			0.00		474.31E+00
			0.50		474.32E+00
			1.00		474.33E+00
			1.50		474.29E+00
			2.00		474.23E+00
			2.50		474.10E+00
			3.00		473.93E+00
			3.50		473.72E+00
			4.00		473.48E+00
			4.50		473.22E+00
			5.00		472.91E+00
			5.50		472.61E+00
			6.00		472.31E+00
			6.50		472.02E+00
			7.00		471.78E+00
			7.50		471.54E+00
			8.00		471.27E+00
			8.50		471.00E+00
			9.00		470.73E+00
			9.50		470.46E+00
			10.00		470.18E+00
			10.50		469.89E+00
			11.00		469.58E+00
			11.50		469.23E+00
			12.00		468.89E+00
			12.50		468.55E+00
			13.00		468.18E+00
			13.50		467.76E+00
			14.00		467.32E+00
			14.50		466.82E+00
			15.00		466.33E+00
			15.50		465.85E+00
			16.00		465.38E+00
			16.50		464.90E+00
			17.00		464.42E+00
			17.50		463.98E+00
			18.00		463.56E+00
			18.50		463.13E+00
			19.00		462.67E+00
			19.50		462.15E+00
			20.00		461.52E+00
			20.50		460.91E+00
			21.00		460.32E+00
			21.50		459.75E+00
			22.00		459.37E+00
			22.50		458.98E+00
			23.00		458.43E+00
			23.50		457.87E+00
			24.00		457.07E+00
			24.50		456.23E+00
			25.00		455.46E+00
			25.50		454.70E+00
			26.00		453.99E+00
			26.50		453.32E+00
			27.00		452.58E+00
			27.50		451.78E+00
			28.00		450.95E+00
			28.50		450.11E+00
			29.00		449.30E+00
			29.50		448.64E+00
			30.00		447.99E+00
			30.50		447.36E+00
			31.00		446.72E+00
			31.50		445.99E+00
			32.00		445.24E+00
			32.50		444.42E+00
			33.00		443.57E+00
			33.50		442.66E+00
			34.00		441.71E+00
			34.50		440.85E+00
			35.00		440.08E+00
			35.50		439.31E+00
			36.00		438.55E+00
			36.50		437.76E+00
			37.00		436.80E+00
			37.50		435.85E+00
			38.00		434.96E+00
			38.50		434.07E+00
			39.00		433.23E+00
			39.50		432.39E+00
			40.00		431.52E+00
			40.50		430.63E+00
			41.00		429.73E+00
			41.50		428.83E+00
			42.00		427.92E+00
			42.50		426.99E+00
			43.00		426.07E+00
			43.50		425.17E+00
			44.00		424.27E+00
			44.50		423.33E+00
			45.00		422.39E+00
			45.50		421.33E+00
			46.00		420.27E+00
			46.50		419.28E+00
			47.00		418.30E+00
			47.50		417.39E+00
			48.00		416.49E+00
			48.50		415.55E+00
			49.00		414.58E+00
			49.50		413.60E+00
			50.00		412.61E+00
			50.50		411.58E+00
			51.00		410.48E+00
			51.50		409.37E+00
			52.00		408.21E+00
			52.50		407.06E+00
			53.00		406.11E+00
			53.50		405.16E+00
			54.00		404.16E+00
			54.50		403.15E+00
			55.00		402.01E+00
			55.50		400.82E+00
			56.00		399.64E+00
			56.50		398.46E+00
			57.00		397.23E+00
			57.50		395.94E+00
			58.00		394.64E+00
			58.50		393.33E+00
			59.00		392.04E+00
			59.50		390.85E+00
			60.00		389.65E+00
			60.50		388.38E+00
			61.00		387.11E+00
			61.50		385.76E+00
			62.00		384.39E+00
			62.50		383.01E+00
			63.00		381.62E+00
			63.50		380.20E+00
			64.00		378.75E+00
			64.50		377.13E+00
			65.00		375.33E+00
			65.50		373.36E+00
			66.00		371.05E+00
			66.50		368.74E+00
			67.00		366.43E+00
			67.50		364.05E+00
			68.00		360.46E+00
			68.50		356.87E+00
			69.00		351.26E+00
			69.50		345.46E+00
			70.00		337.47E+00
			70.50		328.90E+00
			71.00		317.52E+00
			71.50		304.23E+00
			72.00		289.15E+00
			72.50		271.94E+00
			73.00		253.93E+00
			73.50		234.42E+00
			74.00		214.87E+00
			74.50		195.23E+00
			75.00		175.61E+00
			75.50		156.61E+00
			76.00		137.61E+00
			76.50		120.81E+00
			77.00		104.17E+00
			77.50		90.624E+00
			78.00		78.070E+00
			78.50		68.193E+00
			79.00		60.081E+00
			79.50		53.766E+00
			80.00		49.329E+00
			80.50		45.548E+00
			81.00		42.970E+00
			81.50		40.625E+00
			82.00		39.063E+00
			82.50		37.521E+00
			83.00		36.271E+00
			83.50		35.020E+00
			84.00		34.045E+00
			84.50		33.090E+00
			85.00		32.290E+00
			85.50		31.526E+00
			86.00		30.758E+00
			86.50		29.992E+00
			87.00		29.330E+00
			87.50		28.770E+00
			88.00		28.183E+00
			88.50		27.543E+00
			89.00		26.934E+00
			89.50		26.425E+00
			90.00		25.916E+00
			90.50		25.423E+00
			91.00		24.930E+00
			91.50		24.500E+00
			92.00		24.076E+00
			92.50		23.659E+00
			93.00		23.243E+00
			93.50		22.868E+00
			94.00		22.515E+00
			94.50		22.174E+00
			95.00		21.844E+00
			95.50		21.500E+00
			96.00		21.136E+00
			96.50		20.779E+00
			97.00		20.451E+00
			97.50		20.128E+00
			98.00		19.846E+00
			98.50		19.562E+00
			99.00		19.261E+00
			99.50		18.959E+00
			100.00		18.723E+00
			100.50		18.504E+00
			101.00		18.244E+00
			101.50		17.961E+00
			102.00		17.700E+00
			102.50		17.460E+00
			103.00		17.230E+00
			103.50		17.014E+00
			104.00		16.801E+00
			104.50		16.594E+00
			105.00		16.389E+00
			105.50		16.203E+00
			106.00		16.017E+00
			106.50		15.782E+00
			107.00		15.545E+00
			107.50		15.411E+00
			108.00		15.306E+00
			108.50		15.108E+00
			109.00		14.861E+00
			109.50		14.649E+00
			110.00		14.469E+00
			110.50		14.297E+00
			111.00		14.132E+00
			111.50		13.969E+00
			112.00		13.806E+00
			112.50		13.648E+00
			113.00		13.514E+00
			113.50		13.379E+00
			114.00		13.208E+00
			114.50		13.036E+00
			115.00		12.903E+00
			115.50		12.780E+00
			116.00		12.644E+00
			116.50		12.503E+00
			117.00		12.384E+00
			117.50		12.283E+00
			118.00		12.160E+00
			118.50		11.996E+00
			119.00		11.843E+00
			119.50		11.725E+00
			120.00		11.605E+00
			120.50		11.504E+00
			121.00		11.402E+00
			121.50		11.308E+00
			122.00		11.212E+00
			122.50		11.089E+00
			123.00		10.958E+00
			123.50		10.870E+00
			124.00		10.804E+00
			124.50		10.737E+00
			125.00		10.671E+00
			125.50		10.573E+00
			126.00		10.431E+00
			126.50		10.304E+00
			127.00		10.223E+00
			127.50		10.142E+00
			128.00		10.056E+00
			128.50		9.9689E+00
		END_DATA
	END_SCAN  2
	BEGIN_SCAN  3
		TASK_NAME=tba PDD Profiles
		PROGRAM=WaterTankScans
		COMMENT=FBF_SanPietro
		MEAS_DATE=08-Feb-2021 09:38:10
		LINAC=MRIdian
		MODALITY=X
		ISOCENTER=900.00
		INPLANE_AXIS=Y
		CROSSPLANE_AXIS=X
		DEPTH_AXIS=Depth
		INPLANE_AXIS_DIR=TARGET_GUN
		CROSSPLANE_AXIS_DIR=LEFT_RIGHT
		DEPTH_AXIS_DIR=UP_DOWN
		ENERGY=6.00
		NOMINAL_DMAX=15.00
		SSD=850.00
		SCD=450.00
		WEDGE_ANGLE=0.00
		FIELD_INPLANE=149.40
		FIELD_CROSSPLANE=149.40
		FIELD_TYPE=RECTANGULAR
		GANTRY=0.00
		GANTRY_UPRIGHT_POSITION=0
		GANTRY_ROTATION=CW
		COLL_ANGLE=0.00
		COLL_OFFSET_INPLANE=0.00
		COLL_OFFSET_CROSSPLANE=0.00
		SCAN_DEVICE=BeamScan
		SCAN_DEVICE_SETUP=BARA_LEFT_RIGHT
		ELECTROMETER=BeamScan
		RANGE_FIELD=LOW
		RANGE_REFERENCE=MEDIUM
		DETECTOR=THIMBLE_CHAMBER
		DETECTOR_RADIUS=2.40
		DETECTOR_NAME=A28MR
		DETECTOR_SN=-
		DETECTOR_CALIBRATION=588000000.00
		DETECTOR_IS_CALIBRATED=0
		DETECTOR_REFERENCE=THIMBLE_CHAMBER
		DETECTOR_REFERENCE_RADIUS=2.75
		DETECTOR_REFERENCE_NAME=A28MR
		DETECTOR_REFERENCE_SN=—
		DETECTOR_REFERENCE_IS_CALIBRATED=0
		DETECTOR_REFERENCE_CALIBRATION=303000000.00
		DETECTOR_HV=300.0
		DETECTOR_REFERENCE_HV=300.0
		DETECTOR_ORIENTATION=HORIZONTAL
		FILTER=FFF
		SCAN_SPEED_PROFILE=10.00
		SCAN_PROF_SPEED_DEP=DEPTH
		SCAN_SPEED_PDD=0.00
		SCAN_PDD_SPEED_DEP=ENERGY
		DETECTOR_TYPE=A28MR
		REF_FIELD_DEPTH=220.00
		REF_FIELD_DEFINED=ISOCENTER
		REF_FIELD_INPLANE=100.00
		REF_FIELD_CROSSPLANE=100.00
		REF_SCAN_POSITIONS=-85.00;-84.00;-83.00;-82.00;-81.00;-80.00;-79.00;-78.00;-77.00;-76.00;-75.00;-74.00;-73.00;-72.00;-71.00;-70.00;-69.00;-68.00;-67.00;-66.00;-65.00;-64.00;-63.00;-62.00;-61.00;-60.00;-59.00;-58.00;-57.00;-56.00;-55.00;-54.00;-53.00;-52.00;-51.00;-50.00;-49.00;-48.00;-47.00;-46.00;-45.00;-44.00;-43.00;-42.00;-41.00;-40.00;-39.00;-38.00;-37.00;-36.00;-35.00;-34.00;-33.00;-32.00;-31.00;-30.00;-29.00;-28.00;-27.00;-26.00;-25.00;-24.00;-23.00;-22.00;-21.00;-20.00;-19.00;-18.00;-17.00;-16.00;-15.00;-14.00;-13.00;-12.00;-11.00;-10.00;-9.00;-8.00;-7.00;-6.00;-5.00;-4.00;-3.00;-2.00;-1.00;0.00;1.00;2.00;3.00;4.00;5.00;6.00;7.00;8.00;9.00;10.00;11.00;12.00;13.00;14.00;15.00;16.00;17.00;18.00;19.00;20.00;21.00;22.00;23.00;24.00;25.00;26.00;27.00;28.00;29.00;30.00;31.00;32.00;33.00;34.00;35.00;36.00;37.00;38.00;39.00;40.00;41.00;42.00;43.00;44.00;45.00;46.00;47.00;48.00;49.00;50.00;51.00;52.00;53.00;54.00;55.00;56.00;57.00;58.00;59.00;60.00;61.00;62.00;63.00;64.00;65.00;66.00;67.00;68.00;69.00;70.00;71.00;72.00;73.00;74.00;75.00;76.00;77.00;78.00;79.00;80.00;81.00;82.00;83.00;84.00;85.00;
		REF_OVERSCAN_FACTOR=1.00
		SCAN_CURVETYPE=CROSSPLANE_PROFILE
		SCAN_DEPTH=100.00
		SCAN_OFFAXIS_INPLANE=0.00
		SCAN_OFFAXIS_CROSSPLANE=0.00
		SCAN_ANGLE=0.00
		SCAN_DIAGONAL=NOT_DIAGONAL
		SCAN_DIRECTION=POSITIVE
		MEAS_MEDIUM=WATER
		MEAS_PRESET=MEAS_CONTINUOUS_REFERENCE_SCAN
		MEAS_TIME=0.100
		MEAS_UNIT=A.U.
		INCLINATION_ANGLE=0.00
		PRESSURE=1013.25
		TEMPERATURE=20.00
		NORM_TEMPERATURE=20.00
		CORRECTION_FACTOR=1.0000
		EXPECTED_MAX_DOSE_RATE=3.00
		EPOM_DEPTH_SHIFT=0.2
		EPOM_MODE=SHIFT_PROTOCOL
		CORRECTIONS=SMOOTHED_CORR;CAX_CORR;INTERPOLATED_CORR;SYMMETRY_CORR;
		BEGIN_DATA
			-128.00		12.430E+00
			-127.50		12.582E+00
			-127.00		12.731E+00
			-126.50		12.898E+00
			-126.00		13.066E+00
			-125.50		13.146E+00
			-125.00		13.212E+00
			-124.50		13.383E+00
			-124.00		13.586E+00
			-123.50		13.717E+00
			-123.00		13.809E+00
			-122.50		13.931E+00
			-122.00		14.069E+00
			-121.50		14.203E+00
			-121.00		14.378E+00
			-120.50		14.569E+00
			-120.00		14.754E+00
			-119.50		14.931E+00
			-119.00		15.069E+00
			-118.50		15.208E+00
			-118.00		15.368E+00
			-117.50		15.521E+00
			-117.00		15.661E+00
			-116.50		15.810E+00
			-116.00		16.031E+00
			-115.50		16.283E+00
			-115.00		16.512E+00
			-114.50		16.715E+00
			-114.00		16.927E+00
			-113.50		17.145E+00
			-113.00		17.347E+00
			-112.50		17.552E+00
			-112.00		17.766E+00
			-111.50		17.969E+00
			-111.00		18.170E+00
			-110.50		18.389E+00
			-110.00		18.609E+00
			-109.50		18.764E+00
			-109.00		18.919E+00
			-108.50		19.186E+00
			-108.00		19.496E+00
			-107.50		19.753E+00
			-107.00		19.974E+00
			-106.50		20.243E+00
			-106.00		20.562E+00
			-105.50		20.861E+00
			-105.00		21.102E+00
			-104.50		21.344E+00
			-104.00		21.633E+00
			-103.50		21.926E+00
			-103.00		22.212E+00
			-102.50		22.499E+00
			-102.00		22.801E+00
			-101.50		23.103E+00
			-101.00		23.460E+00
			-100.50		23.830E+00
			-100.00		24.142E+00
			-99.50		24.438E+00
			-99.00		24.749E+00
			-98.50		25.059E+00
			-98.00		25.451E+00
			-97.50		25.958E+00
			-97.00		26.409E+00
			-96.50		26.736E+00
			-96.00		27.082E+00
			-95.50		27.494E+00
			-95.00		27.909E+00
			-94.50		28.366E+00
			-94.00		28.824E+00
			-93.50		29.359E+00
			-93.00		29.909E+00
			-92.50		30.430E+00
			-92.00		30.938E+00
			-91.50		31.500E+00
			-91.00		32.112E+00
			-90.50		32.709E+00
			-90.00		33.278E+00
			-89.50		33.875E+00
			-89.00		34.503E+00
			-88.50		35.170E+00
			-88.00		36.057E+00
			-87.50		36.953E+00
			-87.00		37.953E+00
			-86.50		38.957E+00
			-86.00		40.066E+00
			-85.50		41.189E+00
			-85.00		42.852E+00
			-84.50		44.668E+00
			-84.00		47.261E+00
			-83.50		50.304E+00
			-83.00		54.480E+00
			-82.50		59.623E+00
			-82.00		65.742E+00
			-81.50		73.674E+00
			-81.00		82.367E+00
			-80.50		93.296E+00
			-80.00		104.44E+00
			-79.50		117.32E+00
			-79.00		130.23E+00
			-78.50		144.36E+00
			-78.00		158.57E+00
			-77.50		172.11E+00
			-77.00		185.51E+00
			-76.50		198.49E+00
			-76.00		211.35E+00
			-75.50		222.60E+00
			-75.00		232.71E+00
			-74.50		241.71E+00
			-74.00		249.27E+00
			-73.50		256.01E+00
			-73.00		260.83E+00
			-72.50		265.38E+00
			-72.00		268.78E+00
			-71.50		272.09E+00
			-71.00		274.29E+00
			-70.50		276.48E+00
			-70.00		278.36E+00
			-69.50		280.19E+00
			-69.00		281.90E+00
			-68.50		283.64E+00
			-68.00		284.84E+00
			-67.50		285.73E+00
			-67.00		286.90E+00
			-66.50		288.26E+00
			-66.00		289.55E+00
			-65.50		290.76E+00
			-65.00		291.90E+00
			-64.50		292.90E+00
			-64.00		293.90E+00
			-63.50		294.96E+00
			-63.00		296.03E+00
			-62.50		297.14E+00
			-62.00		298.27E+00
			-61.50		299.22E+00
			-61.00		300.15E+00
			-60.50		301.01E+00
			-60.00		301.85E+00
			-59.50		302.70E+00
			-59.00		303.56E+00
			-58.50		304.43E+00
			-58.00		305.30E+00
			-57.50		306.17E+00
			-57.00		307.06E+00
			-56.50		307.95E+00
			-56.00		308.83E+00
			-55.50		309.72E+00
			-55.00		310.66E+00
			-54.50		311.60E+00
			-54.00		312.51E+00
			-53.50		313.39E+00
			-53.00		314.22E+00
			-52.50		314.99E+00
			-52.00		315.80E+00
			-51.50		316.61E+00
			-51.00		317.43E+00
			-50.50		318.28E+00
			-50.00		319.11E+00
			-49.50		319.95E+00
			-49.00		320.78E+00
			-48.50		321.60E+00
			-48.00		322.41E+00
			-47.50		323.15E+00
			-47.00		323.89E+00
			-46.50		324.59E+00
			-46.00		325.27E+00
			-45.50		325.98E+00
			-45.00		326.72E+00
			-44.50		327.47E+00
			-44.00		328.23E+00
			-43.50		328.95E+00
			-43.00		329.64E+00
			-42.50		330.34E+00
			-42.00		331.03E+00
			-41.50		331.71E+00
			-41.00		332.37E+00
			-40.50		333.03E+00
			-40.00		333.67E+00
			-39.50		334.32E+00
			-39.00		334.98E+00
			-38.50		335.64E+00
			-38.00		336.29E+00
			-37.50		336.93E+00
			-37.00		337.60E+00
			-36.50		338.29E+00
			-36.00		338.98E+00
			-35.50		339.70E+00
			-35.00		340.36E+00
			-34.50		340.93E+00
			-34.00		341.49E+00
			-33.50		341.98E+00
			-33.00		342.48E+00
			-32.50		343.10E+00
			-32.00		343.74E+00
			-31.50		344.43E+00
			-31.00		345.14E+00
			-30.50		345.68E+00
			-30.00		346.21E+00
			-29.50		346.71E+00
			-29.00		347.17E+00
			-28.50		347.75E+00
			-28.00		348.37E+00
			-27.50		348.96E+00
			-27.00		349.57E+00
			-26.50		350.09E+00
			-26.00		350.47E+00
			-25.50		350.88E+00
			-25.00		351.31E+00
			-24.50		351.76E+00
			-24.00		352.26E+00
			-23.50		352.77E+00
			-23.00		353.29E+00
			-22.50		353.82E+00
			-22.00		354.37E+00
			-21.50		354.95E+00
			-21.00		355.39E+00
			-20.50		355.78E+00
			-20.00		356.09E+00
			-19.50		356.36E+00
			-19.00		356.71E+00
			-18.50		357.14E+00
			-18.00		357.58E+00
			-17.50		358.03E+00
			-17.00		358.45E+00
			-16.50		358.72E+00
			-16.00		359.01E+00
			-15.50		359.32E+00
			-15.00		359.62E+00
			-14.50		360.02E+00
			-14.00		360.44E+00
			-13.50		360.83E+00
			-13.00		361.20E+00
			-12.50		361.49E+00
			-12.00		361.74E+00
			-11.50		361.97E+00
			-11.00		362.16E+00
			-10.50		362.35E+00
			-10.00		362.52E+00
			-9.50		362.68E+00
			-9.00		362.79E+00
			-8.50		362.92E+00
			-8.00		363.15E+00
			-7.50		363.38E+00
			-7.00		363.64E+00
			-6.50		363.90E+00
			-6.00		364.10E+00
			-5.50		364.29E+00
			-5.00		364.46E+00
			-4.50		364.62E+00
			-4.00		364.73E+00
			-3.50		364.82E+00
			-3.00		364.88E+00
			-2.50		364.91E+00
			-2.00		364.96E+00
			-1.50		365.02E+00
			-1.00		365.07E+00
			-0.50		365.10E+00
			0.00		365.14E+00
			0.50		365.10E+00
			1.00		365.07E+00
			1.50		365.02E+00
			2.00		364.96E+00
			2.50		364.91E+00
			3.00		364.88E+00
			3.50		364.82E+00
			4.00		364.73E+00
			4.50		364.62E+00
			5.00		364.46E+00
			5.50		364.29E+00
			6.00		364.10E+00
			6.50		363.90E+00
			7.00		363.64E+00
			7.50		363.38E+00
			8.00		363.15E+00
			8.50		362.92E+00
			9.00		362.79E+00
			9.50		362.68E+00
			10.00		362.52E+00
			10.50		362.35E+00
			11.00		362.16E+00
			11.50		361.97E+00
			12.00		361.74E+00
			12.50		361.49E+00
			13.00		361.20E+00
			13.50		360.83E+00
			14.00		360.44E+00
			14.50		360.02E+00
			15.00		359.62E+00
			15.50		359.32E+00
			16.00		359.01E+00
			16.50		358.72E+00
			17.00		358.45E+00
			17.50		358.03E+00
			18.00		357.58E+00
			18.50		357.14E+00
			19.00		356.71E+00
			19.50		356.36E+00
			20.00		356.09E+00
			20.50		355.78E+00
			21.00		355.39E+00
			21.50		354.95E+00
			22.00		354.37E+00
			22.50		353.82E+00
			23.00		353.29E+00
			23.50		352.77E+00
			24.00		352.26E+00
			24.50		351.76E+00
			25.00		351.31E+00
			25.50		350.88E+00
			26.00		350.47E+00
			26.50		350.09E+00
			27.00		349.57E+00
			27.50		348.96E+00
			28.00		348.37E+00
			28.50		347.75E+00
			29.00		347.17E+00
			29.50		346.71E+00
			30.00		346.21E+00
			30.50		345.68E+00
			31.00		345.14E+00
			31.50		344.43E+00
			32.00		343.74E+00
			32.50		343.10E+00
			33.00		342.48E+00
			33.50		341.98E+00
			34.00		341.49E+00
			34.50		340.93E+00
			35.00		340.36E+00
			35.50		339.70E+00
			36.00		338.98E+00
			36.50		338.29E+00
			37.00		337.60E+00
			37.50		336.93E+00
			38.00		336.29E+00
			38.50		335.64E+00
			39.00		334.98E+00
			39.50		334.32E+00
			40.00		333.67E+00
			40.50		333.03E+00
			41.00		332.37E+00
			41.50		331.71E+00
			42.00		331.03E+00
			42.50		330.34E+00
			43.00		329.64E+00
			43.50		328.95E+00
			44.00		328.23E+00
			44.50		327.47E+00
			45.00		326.72E+00
			45.50		325.98E+00
			46.00		325.27E+00
			46.50		324.59E+00
			47.00		323.89E+00
			47.50		323.15E+00
			48.00		322.41E+00
			48.50		321.60E+00
			49.00		320.78E+00
			49.50		319.95E+00
			50.00		319.11E+00
			50.50		318.28E+00
			51.00		317.43E+00
			51.50		316.61E+00
			52.00		315.80E+00
			52.50		314.99E+00
			53.00		314.22E+00
			53.50		313.39E+00
			54.00		312.51E+00
			54.50		311.60E+00
			55.00		310.66E+00
			55.50		309.72E+00
			56.00		308.83E+00
			56.50		307.95E+00
			57.00		307.06E+00
			57.50		306.17E+00
			58.00		305.30E+00
			58.50		304.43E+00
			59.00		303.56E+00
			59.50		302.70E+00
			60.00		301.85E+00
			60.50		301.01E+00
			61.00		300.15E+00
			61.50		299.22E+00
			62.00		298.27E+00
			62.50		297.14E+00
			63.00		296.03E+00
			63.50		294.96E+00
			64.00		293.90E+00
			64.50		292.90E+00
			65.00		291.90E+00
			65.50		290.76E+00
			66.00		289.55E+00
			66.50		288.26E+00
			67.00		286.90E+00
			67.50		285.73E+00
			68.00		284.84E+00
			68.50		283.64E+00
			69.00		281.90E+00
			69.50		280.19E+00
			70.00		278.36E+00
			70.50		276.48E+00
			71.00		274.29E+00
			71.50		272.09E+00
			72.00		268.78E+00
			72.50		265.38E+00
			73.00		260.83E+00
			73.50		256.01E+00
			74.00		249.27E+00
			74.50		241.71E+00
			75.00		232.71E+00
			75.50		222.60E+00
			76.00		211.35E+00
			76.50		198.49E+00
			77.00		185.51E+00
			77.50		172.11E+00
			78.00		158.57E+00
			78.50		144.36E+00
			79.00		130.23E+00
			79.50		117.32E+00
			80.00		104.44E+00
			80.50		93.296E+00
			81.00		82.367E+00
			81.50		73.674E+00
			82.00		65.742E+00
			82.50		59.623E+00
			83.00		54.480E+00
			83.50		50.304E+00
			84.00		47.261E+00
			84.50		44.668E+00
			85.00		42.852E+00
			85.50		41.189E+00
			86.00		40.066E+00
			86.50		38.957E+00
			87.00		37.953E+00
			87.50		36.953E+00
			88.00		36.057E+00
			88.50		35.170E+00
			89.00		34.503E+00
			89.50		33.875E+00
			90.00		33.278E+00
			90.50		32.709E+00
			91.00		32.112E+00
			91.50		31.500E+00
			92.00		30.938E+00
			92.50		30.430E+00
			93.00		29.909E+00
			93.50		29.359E+00
			94.00		28.824E+00
			94.50		28.366E+00
			95.00		27.909E+00
			95.50		27.494E+00
			96.00		27.082E+00
			96.50		26.736E+00
			97.00		26.409E+00
			97.50		25.958E+00
			98.00		25.451E+00
			98.50		25.059E+00
			99.00		24.749E+00
			99.50		24.438E+00
			100.00		24.142E+00
			100.50		23.830E+00
			101.00		23.460E+00
			101.50		23.103E+00
			102.00		22.801E+00
			102.50		22.499E+00
			103.00		22.212E+00
			103.50		21.926E+00
			104.00		21.633E+00
			104.50		21.344E+00
			105.00		21.102E+00
			105.50		20.861E+00
			106.00		20.562E+00
			106.50		20.243E+00
			107.00		19.974E+00
			107.50		19.753E+00
			108.00		19.496E+00
			108.50		19.186E+00
			109.00		18.919E+00
			109.50		18.764E+00
			110.00		18.609E+00
			110.50		18.389E+00
			111.00		18.170E+00
			111.50		17.969E+00
			112.00		17.766E+00
			112.50		17.552E+00
			113.00		17.347E+00
			113.50		17.145E+00
			114.00		16.927E+00
			114.50		16.715E+00
			115.00		16.512E+00
			115.50		16.283E+00
			116.00		16.031E+00
			116.50		15.810E+00
			117.00		15.661E+00
			117.50		15.521E+00
			118.00		15.368E+00
			118.50		15.208E+00
			119.00		15.069E+00
			119.50		14.931E+00
			120.00		14.754E+00
			120.50		14.569E+00
			121.00		14.378E+00
			121.50		14.203E+00
			122.00		14.069E+00
			122.50		13.931E+00
			123.00		13.809E+00
			123.50		13.717E+00
			124.00		13.586E+00
			124.50		13.383E+00
			125.00		13.212E+00
			125.50		13.146E+00
			126.00		13.066E+00
			126.50		12.898E+00
			127.00		12.731E+00
			127.50		12.582E+00
			128.00		12.430E+00
		END_DATA
	END_SCAN  3
	BEGIN_SCAN  4
		TASK_NAME=tba PDD Profiles
		PROGRAM=WaterTankScans
		COMMENT=FBF_SanPietro
		MEAS_DATE=08-Feb-2021 09:38:10
		LINAC=MRIdian
		MODALITY=X
		ISOCENTER=900.00
		INPLANE_AXIS=Y
		CROSSPLANE_AXIS=X
		DEPTH_AXIS=Depth
		INPLANE_AXIS_DIR=TARGET_GUN
		CROSSPLANE_AXIS_DIR=LEFT_RIGHT
		DEPTH_AXIS_DIR=UP_DOWN
		ENERGY=6.00
		NOMINAL_DMAX=15.00
		SSD=850.00
		SCD=450.00
		WEDGE_ANGLE=0.00
		FIELD_INPLANE=149.40
		FIELD_CROSSPLANE=149.40
		FIELD_TYPE=RECTANGULAR
		GANTRY=0.00
		GANTRY_UPRIGHT_POSITION=0
		GANTRY_ROTATION=CW
		COLL_ANGLE=0.00
		COLL_OFFSET_INPLANE=0.00
		COLL_OFFSET_CROSSPLANE=0.00
		SCAN_DEVICE=BeamScan
		SCAN_DEVICE_SETUP=BARA_LEFT_RIGHT
		ELECTROMETER=BeamScan
		RANGE_FIELD=LOW
		RANGE_REFERENCE=MEDIUM
		DETECTOR=THIMBLE_CHAMBER
		DETECTOR_RADIUS=2.40
		DETECTOR_NAME=A28MR
		DETECTOR_SN=-
		DETECTOR_CALIBRATION=588000000.00
		DETECTOR_IS_CALIBRATED=0
		DETECTOR_REFERENCE=THIMBLE_CHAMBER
		DETECTOR_REFERENCE_RADIUS=2.75
		DETECTOR_REFERENCE_NAME=A28MR
		DETECTOR_REFERENCE_SN=—
		DETECTOR_REFERENCE_IS_CALIBRATED=0
		DETECTOR_REFERENCE_CALIBRATION=303000000.00
		DETECTOR_HV=300.0
		DETECTOR_REFERENCE_HV=300.0
		DETECTOR_ORIENTATION=HORIZONTAL
		FILTER=FFF
		SCAN_SPEED_PROFILE=10.00
		SCAN_PROF_SPEED_DEP=DEPTH
		SCAN_SPEED_PDD=0.00
		SCAN_PDD_SPEED_DEP=ENERGY
		DETECTOR_TYPE=A28MR
		REF_FIELD_DEPTH=220.00
		REF_FIELD_DEFINED=ISOCENTER
		REF_FIELD_INPLANE=100.00
		REF_FIELD_CROSSPLANE=100.00
		REF_SCAN_POSITIONS=-85.00;-84.00;-83.00;-82.00;-81.00;-80.00;-79.00;-78.00;-77.00;-76.00;-75.00;-74.00;-73.00;-72.00;-71.00;-70.00;-69.00;-68.00;-67.00;-66.00;-65.00;-64.00;-63.00;-62.00;-61.00;-60.00;-59.00;-58.00;-57.00;-56.00;-55.00;-54.00;-53.00;-52.00;-51.00;-50.00;-49.00;-48.00;-47.00;-46.00;-45.00;-44.00;-43.00;-42.00;-41.00;-40.00;-39.00;-38.00;-37.00;-36.00;-35.00;-34.00;-33.00;-32.00;-31.00;-30.00;-29.00;-28.00;-27.00;-26.00;-25.00;-24.00;-23.00;-22.00;-21.00;-20.00;-19.00;-18.00;-17.00;-16.00;-15.00;-14.00;-13.00;-12.00;-11.00;-10.00;-9.00;-8.00;-7.00;-6.00;-5.00;-4.00;-3.00;-2.00;-1.00;0.00;1.00;2.00;3.00;4.00;5.00;6.00;7.00;8.00;9.00;10.00;11.00;12.00;13.00;14.00;15.00;16.00;17.00;18.00;19.00;20.00;21.00;22.00;23.00;24.00;25.00;26.00;27.00;28.00;29.00;30.00;31.00;32.00;33.00;34.00;35.00;36.00;37.00;38.00;39.00;40.00;41.00;42.00;43.00;44.00;45.00;46.00;47.00;48.00;49.00;50.00;51.00;52.00;53.00;54.00;55.00;56.00;57.00;58.00;59.00;60.00;61.00;62.00;63.00;64.00;65.00;66.00;67.00;68.00;69.00;70.00;71.00;72.00;73.00;74.00;75.00;76.00;77.00;78.00;79.00;80.00;81.00;82.00;83.00;84.00;85.00;
		REF_OVERSCAN_FACTOR=1.00
		SCAN_CURVETYPE=CROSSPLANE_PROFILE
		SCAN_DEPTH=150.00
		SCAN_OFFAXIS_INPLANE=0.00
		SCAN_OFFAXIS_CROSSPLANE=0.00
		SCAN_ANGLE=0.00
		SCAN_DIAGONAL=NOT_DIAGONAL
		SCAN_DIRECTION=POSITIVE
		MEAS_MEDIUM=WATER
		MEAS_PRESET=MEAS_CONTINUOUS_REFERENCE_SCAN
		MEAS_TIME=0.100
		MEAS_UNIT=A.U.
		INCLINATION_ANGLE=0.00
		PRESSURE=1013.25
		TEMPERATURE=20.00
		NORM_TEMPERATURE=20.00
		CORRECTION_FACTOR=1.0000
		EXPECTED_MAX_DOSE_RATE=3.00
		EPOM_DEPTH_SHIFT=0.2
		EPOM_MODE=SHIFT_PROTOCOL
		CORRECTIONS=SMOOTHED_CORR;CAX_CORR;INTERPOLATED_CORR;SYMMETRY_CORR;
		BEGIN_DATA
			-127.50		14.083E+00
			-127.00		14.234E+00
			-126.50		14.387E+00
			-126.00		14.528E+00
			-125.50		14.667E+00
			-125.00		14.808E+00
			-124.50		14.951E+00
			-124.00		15.121E+00
			-123.50		15.291E+00
			-123.00		15.430E+00
			-122.50		15.557E+00
			-122.00		15.710E+00
			-121.50		15.880E+00
			-121.00		16.057E+00
			-120.50		16.231E+00
			-120.00		16.402E+00
			-119.50		16.579E+00
			-119.00		16.767E+00
			-118.50		16.937E+00
			-118.00		17.093E+00
			-117.50		17.272E+00
			-117.00		17.455E+00
			-116.50		17.628E+00
			-116.00		17.802E+00
			-115.50		18.055E+00
			-115.00		18.326E+00
			-114.50		18.504E+00
			-114.00		18.653E+00
			-113.50		18.875E+00
			-113.00		19.130E+00
			-112.50		19.360E+00
			-112.00		19.573E+00
			-111.50		19.788E+00
			-111.00		20.005E+00
			-110.50		20.225E+00
			-110.00		20.462E+00
			-109.50		20.693E+00
			-109.00		20.894E+00
			-108.50		21.106E+00
			-108.00		21.415E+00
			-107.50		21.725E+00
			-107.00		21.971E+00
			-106.50		22.215E+00
			-106.00		22.472E+00
			-105.50		22.730E+00
			-105.00		23.000E+00
			-104.50		23.295E+00
			-104.00		23.564E+00
			-103.50		23.771E+00
			-103.00		24.037E+00
			-102.50		24.424E+00
			-102.00		24.806E+00
			-101.50		25.167E+00
			-101.00		25.521E+00
			-100.50		25.844E+00
			-100.00		26.173E+00
			-99.50		26.540E+00
			-99.00		26.906E+00
			-98.50		27.291E+00
			-98.00		27.681E+00
			-97.50		28.045E+00
			-97.00		28.410E+00
			-96.50		28.834E+00
			-96.00		29.284E+00
			-95.50		29.726E+00
			-95.00		30.161E+00
			-94.50		30.624E+00
			-94.00		31.112E+00
			-93.50		31.607E+00
			-93.00		32.188E+00
			-92.50		32.785E+00
			-92.00		33.428E+00
			-91.50		34.079E+00
			-91.00		34.832E+00
			-90.50		35.592E+00
			-90.00		36.502E+00
			-89.50		37.445E+00
			-89.00		38.847E+00
			-88.50		40.424E+00
			-88.00		42.394E+00
			-87.50		44.594E+00
			-87.00		47.556E+00
			-86.50		51.445E+00
			-86.00		56.011E+00
			-85.50		61.763E+00
			-85.00		67.946E+00
			-84.50		75.538E+00
			-84.00		83.259E+00
			-83.50		92.198E+00
			-83.00		101.18E+00
			-82.50		110.56E+00
			-82.00		119.99E+00
			-81.50		129.41E+00
			-81.00		138.85E+00
			-80.50		147.66E+00
			-80.00		156.19E+00
			-79.50		163.86E+00
			-79.00		170.88E+00
			-78.50		177.08E+00
			-78.00		182.15E+00
			-77.50		186.65E+00
			-77.00		190.10E+00
			-76.50		193.29E+00
			-76.00		195.61E+00
			-75.50		197.90E+00
			-75.00		199.76E+00
			-74.50		201.59E+00
			-74.00		202.96E+00
			-73.50		204.27E+00
			-73.00		205.46E+00
			-72.50		206.60E+00
			-72.00		207.58E+00
			-71.50		208.49E+00
			-71.00		209.40E+00
			-70.50		210.29E+00
			-70.00		211.17E+00
			-69.50		212.05E+00
			-69.00		212.93E+00
			-68.50		213.76E+00
			-68.00		214.58E+00
			-67.50		215.39E+00
			-67.00		216.18E+00
			-66.50		217.01E+00
			-66.00		217.82E+00
			-65.50		218.54E+00
			-65.00		219.24E+00
			-64.50		219.87E+00
			-64.00		220.49E+00
			-63.50		221.18E+00
			-63.00		221.88E+00
			-62.50		222.58E+00
			-62.00		223.27E+00
			-61.50		223.92E+00
			-61.00		224.52E+00
			-60.50		225.12E+00
			-60.00		225.74E+00
			-59.50		226.36E+00
			-59.00		227.05E+00
			-58.50		227.74E+00
			-58.00		228.38E+00
			-57.50		229.03E+00
			-57.00		229.65E+00
			-56.50		230.26E+00
			-56.00		230.93E+00
			-55.50		231.62E+00
			-55.00		232.29E+00
			-54.50		232.96E+00
			-54.00		233.61E+00
			-53.50		234.22E+00
			-53.00		234.83E+00
			-52.50		235.43E+00
			-52.00		236.00E+00
			-51.50		236.52E+00
			-51.00		237.05E+00
			-50.50		237.55E+00
			-50.00		238.07E+00
			-49.50		238.61E+00
			-49.00		239.15E+00
			-48.50		239.76E+00
			-48.00		240.35E+00
			-47.50		240.93E+00
			-47.00		241.51E+00
			-46.50		242.01E+00
			-46.00		242.48E+00
			-45.50		242.98E+00
			-45.00		243.49E+00
			-44.50		244.02E+00
			-44.00		244.54E+00
			-43.50		245.06E+00
			-43.00		245.57E+00
			-42.50		246.07E+00
			-42.00		246.58E+00
			-41.50		247.11E+00
			-41.00		247.51E+00
			-40.50		247.91E+00
			-40.00		248.30E+00
			-39.50		248.70E+00
			-39.00		249.22E+00
			-38.50		249.77E+00
			-38.00		250.33E+00
			-37.50		250.89E+00
			-37.00		251.39E+00
			-36.50		251.85E+00
			-36.00		252.24E+00
			-35.50		252.61E+00
			-35.00		252.96E+00
			-34.50		253.35E+00
			-34.00		253.74E+00
			-33.50		254.22E+00
			-33.00		254.70E+00
			-32.50		255.18E+00
			-32.00		255.64E+00
			-31.50		256.02E+00
			-31.00		256.39E+00
			-30.50		256.76E+00
			-30.00		257.13E+00
			-29.50		257.48E+00
			-29.00		257.85E+00
			-28.50		258.21E+00
			-28.00		258.58E+00
			-27.50		258.96E+00
			-27.00		259.40E+00
			-26.50		259.84E+00
			-26.00		260.30E+00
			-25.50		260.76E+00
			-25.00		261.10E+00
			-24.50		261.42E+00
			-24.00		261.68E+00
			-23.50		261.93E+00
			-23.00		262.29E+00
			-22.50		262.66E+00
			-22.00		263.02E+00
			-21.50		263.40E+00
			-21.00		263.71E+00
			-20.50		263.98E+00
			-20.00		264.23E+00
			-19.50		264.46E+00
			-19.00		264.70E+00
			-18.50		264.92E+00
			-18.00		265.17E+00
			-17.50		265.45E+00
			-17.00		265.73E+00
			-16.50		265.98E+00
			-16.00		266.23E+00
			-15.50		266.39E+00
			-15.00		266.54E+00
			-14.50		266.70E+00
			-14.00		266.85E+00
			-13.50		267.02E+00
			-13.00		267.20E+00
			-12.50		267.40E+00
			-12.00		267.65E+00
			-11.50		267.91E+00
			-11.00		268.21E+00
			-10.50		268.48E+00
			-10.00		268.62E+00
			-9.50		268.75E+00
			-9.00		268.78E+00
			-8.50		268.82E+00
			-8.00		268.93E+00
			-7.50		269.04E+00
			-7.00		269.22E+00
			-6.50		269.42E+00
			-6.00		269.59E+00
			-5.50		269.77E+00
			-5.00		269.89E+00
			-4.50		269.96E+00
			-4.00		270.03E+00
			-3.50		270.08E+00
			-3.00		270.14E+00
			-2.50		270.23E+00
			-2.00		270.32E+00
			-1.50		270.35E+00
			-1.00		270.38E+00
			-0.50		270.36E+00
			0.00		270.34E+00
			0.50		270.36E+00
			1.00		270.38E+00
			1.50		270.35E+00
			2.00		270.32E+00
			2.50		270.23E+00
			3.00		270.14E+00
			3.50		270.08E+00
			4.00		270.03E+00
			4.50		269.96E+00
			5.00		269.89E+00
			5.50		269.77E+00
			6.00		269.59E+00
			6.50		269.42E+00
			7.00		269.22E+00
			7.50		269.04E+00
			8.00		268.93E+00
			8.50		268.82E+00
			9.00		268.78E+00
			9.50		268.75E+00
			10.00		268.62E+00
			10.50		268.48E+00
			11.00		268.21E+00
			11.50		267.91E+00
			12.00		267.65E+00
			12.50		267.40E+00
			13.00		267.20E+00
			13.50		267.02E+00
			14.00		266.85E+00
			14.50		266.70E+00
			15.00		266.54E+00
			15.50		266.39E+00
			16.00		266.23E+00
			16.50		265.98E+00
			17.00		265.73E+00
			17.50		265.45E+00
			18.00		265.17E+00
			18.50		264.92E+00
			19.00		264.70E+00
			19.50		264.46E+00
			20.00		264.23E+00
			20.50		263.98E+00
			21.00		263.71E+00
			21.50		263.40E+00
			22.00		263.02E+00
			22.50		262.66E+00
			23.00		262.29E+00
			23.50		261.93E+00
			24.00		261.68E+00
			24.50		261.42E+00
			25.00		261.10E+00
			25.50		260.76E+00
			26.00		260.30E+00
			26.50		259.84E+00
			27.00		259.40E+00
			27.50		258.96E+00
			28.00		258.58E+00
			28.50		258.21E+00
			29.00		257.85E+00
			29.50		257.48E+00
			30.00		257.13E+00
			30.50		256.76E+00
			31.00		256.39E+00
			31.50		256.02E+00
			32.00		255.64E+00
			32.50		255.18E+00
			33.00		254.70E+00
			33.50		254.22E+00
			34.00		253.74E+00
			34.50		253.35E+00
			35.00		252.96E+00
			35.50		252.61E+00
			36.00		252.24E+00
			36.50		251.85E+00
			37.00		251.39E+00
			37.50		250.89E+00
			38.00		250.33E+00
			38.50		249.77E+00
			39.00		249.22E+00
			39.50		248.70E+00
			40.00		248.30E+00
			40.50		247.91E+00
			41.00		247.51E+00
			41.50		247.11E+00
			42.00		246.58E+00
			42.50		246.07E+00
			43.00		245.57E+00
			43.50		245.06E+00
			44.00		244.54E+00
			44.50		244.02E+00
			45.00		243.49E+00
			45.50		242.98E+00
			46.00		242.48E+00
			46.50		242.01E+00
			47.00		241.51E+00
			47.50		240.93E+00
			48.00		240.35E+00
			48.50		239.76E+00
			49.00		239.15E+00
			49.50		238.61E+00
			50.00		238.07E+00
			50.50		237.55E+00
			51.00		237.05E+00
			51.50		236.52E+00
			52.00		236.00E+00
			52.50		235.43E+00
			53.00		234.83E+00
			53.50		234.22E+00
			54.00		233.61E+00
			54.50		232.96E+00
			55.00		232.29E+00
			55.50		231.62E+00
			56.00		230.93E+00
			56.50		230.26E+00
			57.00		229.65E+00
			57.50		229.03E+00
			58.00		228.38E+00
			58.50		227.74E+00
			59.00		227.05E+00
			59.50		226.36E+00
			60.00		225.74E+00
			60.50		225.12E+00
			61.00		224.52E+00
			61.50		223.92E+00
			62.00		223.27E+00
			62.50		222.58E+00
			63.00		221.88E+00
			63.50		221.18E+00
			64.00		220.49E+00
			64.50		219.87E+00
			65.00		219.24E+00
			65.50		218.54E+00
			66.00		217.82E+00
			66.50		217.01E+00
			67.00		216.18E+00
			67.50		215.39E+00
			68.00		214.58E+00
			68.50		213.76E+00
			69.00		212.93E+00
			69.50		212.05E+00
			70.00		211.17E+00
			70.50		210.29E+00
			71.00		209.40E+00
			71.50		208.49E+00
			72.00		207.58E+00
			72.50		206.60E+00
			73.00		205.46E+00
			73.50		204.27E+00
			74.00		202.96E+00
			74.50		201.59E+00
			75.00		199.76E+00
			75.50		197.90E+00
			76.00		195.61E+00
			76.50		193.29E+00
			77.00		190.10E+00
			77.50		186.65E+00
			78.00		182.15E+00
			78.50		177.08E+00
			79.00		170.88E+00
			79.50		163.86E+00
			80.00		156.19E+00
			80.50		147.66E+00
			81.00		138.85E+00
			81.50		129.41E+00
			82.00		119.99E+00
			82.50		110.56E+00
			83.00		101.18E+00
			83.50		92.198E+00
			84.00		83.259E+00
			84.50		75.538E+00
			85.00		67.946E+00
			85.50		61.763E+00
			86.00		56.011E+00
			86.50		51.445E+00
			87.00		47.556E+00
			87.50		44.594E+00
			88.00		42.394E+00
			88.50		40.424E+00
			89.00		38.847E+00
			89.50		37.445E+00
			90.00		36.502E+00
			90.50		35.592E+00
			91.00		34.832E+00
			91.50		34.079E+00
			92.00		33.428E+00
			92.50		32.785E+00
			93.00		32.188E+00
			93.50		31.607E+00
			94.00		31.112E+00
			94.50		30.624E+00
			95.00		30.161E+00
			95.50		29.726E+00
			96.00		29.284E+00
			96.50		28.834E+00
			97.00		28.410E+00
			97.50		28.045E+00
			98.00		27.681E+00
			98.50		27.291E+00
			99.00		26.906E+00
			99.50		26.540E+00
			100.00		26.173E+00
			100.50		25.844E+00
			101.00		25.521E+00
			101.50		25.167E+00
			102.00		24.806E+00
			102.50		24.424E+00
			103.00		24.037E+00
			103.50		23.771E+00
			104.00		23.564E+00
			104.50		23.295E+00
			105.00		23.000E+00
			105.50		22.730E+00
			106.00		22.472E+00
			106.50		22.215E+00
			107.00		21.971E+00
			107.50		21.725E+00
			108.00		21.415E+00
			108.50		21.106E+00
			109.00		20.894E+00
			109.50		20.693E+00
			110.00		20.462E+00
			110.50		20.225E+00
			111.00		20.005E+00
			111.50		19.788E+00
			112.00		19.573E+00
			112.50		19.360E+00
			113.00		19.130E+00
			113.50		18.875E+00
			114.00		18.653E+00
			114.50		18.504E+00
			115.00		18.326E+00
			115.50		18.055E+00
			116.00		17.802E+00
			116.50		17.628E+00
			117.00		17.455E+00
			117.50		17.272E+00
			118.00		17.093E+00
			118.50		16.937E+00
			119.00		16.767E+00
			119.50		16.579E+00
			120.00		16.402E+00
			120.50		16.231E+00
			121.00		16.057E+00
			121.50		15.880E+00
			122.00		15.710E+00
			122.50		15.557E+00
			123.00		15.430E+00
			123.50		15.291E+00
			124.00		15.121E+00
			124.50		14.951E+00
			125.00		14.808E+00
			125.50		14.667E+00
			126.00		14.528E+00
			126.50		14.387E+00
			127.00		14.234E+00
			127.50		14.083E+00
		END_DATA
	END_SCAN  4
	BEGIN_SCAN  5
		TASK_NAME=tba PDD Profiles
		PROGRAM=WaterTankScans
		COMMENT=FBF_SanPietro
		MEAS_DATE=08-Feb-2021 09:38:10
		LINAC=MRIdian
		MODALITY=X
		ISOCENTER=900.00
		INPLANE_AXIS=Y
		CROSSPLANE_AXIS=X
		DEPTH_AXIS=Depth
		INPLANE_AXIS_DIR=TARGET_GUN
		CROSSPLANE_AXIS_DIR=LEFT_RIGHT
		DEPTH_AXIS_DIR=UP_DOWN
		ENERGY=6.00
		NOMINAL_DMAX=15.00
		SSD=850.00
		SCD=450.00
		WEDGE_ANGLE=0.00
		FIELD_INPLANE=149.40
		FIELD_CROSSPLANE=149.40
		FIELD_TYPE=RECTANGULAR
		GANTRY=0.00
		GANTRY_UPRIGHT_POSITION=0
		GANTRY_ROTATION=CW
		COLL_ANGLE=0.00
		COLL_OFFSET_INPLANE=0.00
		COLL_OFFSET_CROSSPLANE=0.00
		SCAN_DEVICE=BeamScan
		SCAN_DEVICE_SETUP=BARA_LEFT_RIGHT
		ELECTROMETER=BeamScan
		RANGE_FIELD=LOW
		RANGE_REFERENCE=MEDIUM
		DETECTOR=THIMBLE_CHAMBER
		DETECTOR_RADIUS=2.40
		DETECTOR_NAME=A28MR
		DETECTOR_SN=-
		DETECTOR_CALIBRATION=588000000.00
		DETECTOR_IS_CALIBRATED=0
		DETECTOR_REFERENCE=THIMBLE_CHAMBER
		DETECTOR_REFERENCE_RADIUS=2.75
		DETECTOR_REFERENCE_NAME=A28MR
		DETECTOR_REFERENCE_SN=—
		DETECTOR_REFERENCE_IS_CALIBRATED=0
		DETECTOR_REFERENCE_CALIBRATION=303000000.00
		DETECTOR_HV=300.0
		DETECTOR_REFERENCE_HV=300.0
		DETECTOR_ORIENTATION=HORIZONTAL
		FILTER=FFF
		SCAN_SPEED_PROFILE=10.00
		SCAN_PROF_SPEED_DEP=DEPTH
		SCAN_SPEED_PDD=0.00
		SCAN_PDD_SPEED_DEP=ENERGY
		DETECTOR_TYPE=A28MR
		REF_FIELD_DEPTH=220.00
		REF_FIELD_DEFINED=ISOCENTER
		REF_FIELD_INPLANE=100.00
		REF_FIELD_CROSSPLANE=100.00
		REF_SCAN_POSITIONS=-85.00;-84.00;-83.00;-82.00;-81.00;-80.00;-79.00;-78.00;-77.00;-76.00;-75.00;-74.00;-73.00;-72.00;-71.00;-70.00;-69.00;-68.00;-67.00;-66.00;-65.00;-64.00;-63.00;-62.00;-61.00;-60.00;-59.00;-58.00;-57.00;-56.00;-55.00;-54.00;-53.00;-52.00;-51.00;-50.00;-49.00;-48.00;-47.00;-46.00;-45.00;-44.00;-43.00;-42.00;-41.00;-40.00;-39.00;-38.00;-37.00;-36.00;-35.00;-34.00;-33.00;-32.00;-31.00;-30.00;-29.00;-28.00;-27.00;-26.00;-25.00;-24.00;-23.00;-22.00;-21.00;-20.00;-19.00;-18.00;-17.00;-16.00;-15.00;-14.00;-13.00;-12.00;-11.00;-10.00;-9.00;-8.00;-7.00;-6.00;-5.00;-4.00;-3.00;-2.00;-1.00;0.00;1.00;2.00;3.00;4.00;5.00;6.00;7.00;8.00;9.00;10.00;11.00;12.00;13.00;14.00;15.00;16.00;17.00;18.00;19.00;20.00;21.00;22.00;23.00;24.00;25.00;26.00;27.00;28.00;29.00;30.00;31.00;32.00;33.00;34.00;35.00;36.00;37.00;38.00;39.00;40.00;41.00;42.00;43.00;44.00;45.00;46.00;47.00;48.00;49.00;50.00;51.00;52.00;53.00;54.00;55.00;56.00;57.00;58.00;59.00;60.00;61.00;62.00;63.00;64.00;65.00;66.00;67.00;68.00;69.00;70.00;71.00;72.00;73.00;74.00;75.00;76.00;77.00;78.00;79.00;80.00;81.00;82.00;83.00;84.00;85.00;
		REF_OVERSCAN_FACTOR=1.00
		SCAN_CURVETYPE=CROSSPLANE_PROFILE
		SCAN_DEPTH=200.00
		SCAN_OFFAXIS_INPLANE=0.00
		SCAN_OFFAXIS_CROSSPLANE=0.00
		SCAN_ANGLE=0.00
		SCAN_DIAGONAL=NOT_DIAGONAL
		SCAN_DIRECTION=POSITIVE
		MEAS_MEDIUM=WATER
		MEAS_PRESET=MEAS_CONTINUOUS_REFERENCE_SCAN
		MEAS_TIME=0.100
		MEAS_UNIT=A.U.
		INCLINATION_ANGLE=0.00
		PRESSURE=1013.25
		TEMPERATURE=20.00
		NORM_TEMPERATURE=20.00
		CORRECTION_FACTOR=1.0000
		EXPECTED_MAX_DOSE_RATE=3.00
		EPOM_DEPTH_SHIFT=0.2
		EPOM_MODE=SHIFT_PROTOCOL
		CORRECTIONS=SMOOTHED_CORR;CAX_CORR;INTERPOLATED_CORR;SYMMETRY_CORR;
		BEGIN_DATA
			-127.00		14.127E+00
			-126.50		14.285E+00
			-126.00		14.438E+00
			-125.50		14.589E+00
			-125.00		14.752E+00
			-124.50		14.925E+00
			-124.00		15.084E+00
			-123.50		15.208E+00
			-123.00		15.330E+00
			-122.50		15.490E+00
			-122.00		15.656E+00
			-121.50		15.820E+00
			-121.00		15.977E+00
			-120.50		16.073E+00
			-120.00		16.155E+00
			-119.50		16.338E+00
			-119.00		16.557E+00
			-118.50		16.726E+00
			-118.00		16.868E+00
			-117.50		17.058E+00
			-117.00		17.307E+00
			-116.50		17.516E+00
			-116.00		17.660E+00
			-115.50		17.827E+00
			-115.00		18.043E+00
			-114.50		18.250E+00
			-114.00		18.379E+00
			-113.50		18.510E+00
			-113.00		18.742E+00
			-112.50		18.987E+00
			-112.00		19.197E+00
			-111.50		19.394E+00
			-111.00		19.617E+00
			-110.50		19.846E+00
			-110.00		20.029E+00
			-109.50		20.209E+00
			-109.00		20.428E+00
			-108.50		20.674E+00
			-108.00		20.910E+00
			-107.50		21.144E+00
			-107.00		21.414E+00
			-106.50		21.715E+00
			-106.00		21.991E+00
			-105.50		22.241E+00
			-105.00		22.502E+00
			-104.50		22.784E+00
			-104.00		23.054E+00
			-103.50		23.247E+00
			-103.00		23.432E+00
			-102.50		23.733E+00
			-102.00		24.077E+00
			-101.50		24.383E+00
			-101.00		24.661E+00
			-100.50		24.965E+00
			-100.00		25.275E+00
			-99.50		25.617E+00
			-99.00		26.016E+00
			-98.50		26.399E+00
			-98.00		26.765E+00
			-97.50		27.142E+00
			-97.00		27.589E+00
			-96.50		28.051E+00
			-96.00		28.531E+00
			-95.50		29.010E+00
			-95.00		29.596E+00
			-94.50		30.199E+00
			-94.00		30.904E+00
			-93.50		31.667E+00
			-93.00		32.694E+00
			-92.50		33.819E+00
			-92.00		35.330E+00
			-91.50		37.189E+00
			-91.00		39.452E+00
			-90.50		42.357E+00
			-90.00		45.680E+00
			-89.50		49.834E+00
			-89.00		54.211E+00
			-88.50		59.560E+00
			-88.00		64.984E+00
			-87.50		71.223E+00
			-87.00		77.517E+00
			-86.50		84.017E+00
			-86.00		90.533E+00
			-85.50		96.876E+00
			-85.00		103.19E+00
			-84.50		109.33E+00
			-84.00		115.35E+00
			-83.50		120.70E+00
			-83.00		125.54E+00
			-82.50		129.82E+00
			-82.00		133.42E+00
			-81.50		136.57E+00
			-81.00		138.92E+00
			-80.50		141.19E+00
			-80.00		143.10E+00
			-79.50		144.91E+00
			-79.00		146.21E+00
			-78.50		147.46E+00
			-78.00		148.47E+00
			-77.50		149.46E+00
			-77.00		150.31E+00
			-76.50		151.16E+00
			-76.00		151.89E+00
			-75.50		152.54E+00
			-75.00		153.20E+00
			-74.50		153.86E+00
			-74.00		154.49E+00
			-73.50		155.07E+00
			-73.00		155.65E+00
			-72.50		156.23E+00
			-72.00		156.80E+00
			-71.50		157.39E+00
			-71.00		157.99E+00
			-70.50		158.57E+00
			-70.00		159.15E+00
			-69.50		159.72E+00
			-69.00		160.29E+00
			-68.50		160.85E+00
			-68.00		161.40E+00
			-67.50		161.93E+00
			-67.00		162.43E+00
			-66.50		162.92E+00
			-66.00		163.39E+00
			-65.50		163.85E+00
			-65.00		164.32E+00
			-64.50		164.79E+00
			-64.00		165.24E+00
			-63.50		165.71E+00
			-63.00		166.21E+00
			-62.50		166.71E+00
			-62.00		167.21E+00
			-61.50		167.71E+00
			-61.00		168.16E+00
			-60.50		168.60E+00
			-60.00		169.05E+00
			-59.50		169.51E+00
			-59.00		169.96E+00
			-58.50		170.42E+00
			-58.00		170.85E+00
			-57.50		171.26E+00
			-57.00		171.72E+00
			-56.50		172.22E+00
			-56.00		172.70E+00
			-55.50		173.18E+00
			-55.00		173.65E+00
			-54.50		174.02E+00
			-54.00		174.41E+00
			-53.50		174.80E+00
			-53.00		175.20E+00
			-52.50		175.63E+00
			-52.00		176.05E+00
			-51.50		176.45E+00
			-51.00		176.85E+00
			-50.50		177.24E+00
			-50.00		177.65E+00
			-49.50		178.08E+00
			-49.00		178.51E+00
			-48.50		178.91E+00
			-48.00		179.27E+00
			-47.50		179.63E+00
			-47.00		179.97E+00
			-46.50		180.30E+00
			-46.00		180.67E+00
			-45.50		181.02E+00
			-45.00		181.42E+00
			-44.50		181.80E+00
			-44.00		182.18E+00
			-43.50		182.55E+00
			-43.00		182.89E+00
			-42.50		183.23E+00
			-42.00		183.55E+00
			-41.50		183.90E+00
			-41.00		184.23E+00
			-40.50		184.57E+00
			-40.00		184.90E+00
			-39.50		185.21E+00
			-39.00		185.51E+00
			-38.50		185.82E+00
			-38.00		186.10E+00
			-37.50		186.42E+00
			-37.00		186.73E+00
			-36.50		187.05E+00
			-36.00		187.37E+00
			-35.50		187.71E+00
			-35.00		188.04E+00
			-34.50		188.35E+00
			-34.00		188.65E+00
			-33.50		188.97E+00
			-33.00		189.29E+00
			-32.50		189.60E+00
			-32.00		189.91E+00
			-31.50		190.21E+00
			-31.00		190.48E+00
			-30.50		190.76E+00
			-30.00		191.04E+00
			-29.50		191.32E+00
			-29.00		191.64E+00
			-28.50		191.95E+00
			-28.00		192.21E+00
			-27.50		192.49E+00
			-27.00		192.71E+00
			-26.50		192.93E+00
			-26.00		193.15E+00
			-25.50		193.38E+00
			-25.00		193.60E+00
			-24.50		193.81E+00
			-24.00		194.00E+00
			-23.50		194.17E+00
			-23.00		194.37E+00
			-22.50		194.60E+00
			-22.00		194.83E+00
			-21.50		195.09E+00
			-21.00		195.32E+00
			-20.50		195.55E+00
			-20.00		195.76E+00
			-19.50		196.00E+00
			-19.00		196.23E+00
			-18.50		196.46E+00
			-18.00		196.68E+00
			-17.50		196.82E+00
			-17.00		196.93E+00
			-16.50		197.05E+00
			-16.00		197.17E+00
			-15.50		197.36E+00
			-15.00		197.56E+00
			-14.50		197.68E+00
			-14.00		197.77E+00
			-13.50		197.89E+00
			-13.00		198.01E+00
			-12.50		198.17E+00
			-12.00		198.36E+00
			-11.50		198.51E+00
			-11.00		198.62E+00
			-10.50		198.73E+00
			-10.00		198.86E+00
			-9.50		199.00E+00
			-9.00		199.12E+00
			-8.50		199.24E+00
			-8.00		199.31E+00
			-7.50		199.38E+00
			-7.00		199.45E+00
			-6.50		199.51E+00
			-6.00		199.58E+00
			-5.50		199.66E+00
			-5.00		199.77E+00
			-4.50		199.92E+00
			-4.00		200.04E+00
			-3.50		200.13E+00
			-3.00		200.18E+00
			-2.50		200.16E+00
			-2.00		200.12E+00
			-1.50		200.07E+00
			-1.00		200.01E+00
			-0.50		199.99E+00
			0.00		199.97E+00
			0.50		199.99E+00
			1.00		200.01E+00
			1.50		200.07E+00
			2.00		200.12E+00
			2.50		200.16E+00
			3.00		200.18E+00
			3.50		200.13E+00
			4.00		200.04E+00
			4.50		199.92E+00
			5.00		199.77E+00
			5.50		199.66E+00
			6.00		199.58E+00
			6.50		199.51E+00
			7.00		199.45E+00
			7.50		199.38E+00
			8.00		199.31E+00
			8.50		199.24E+00
			9.00		199.12E+00
			9.50		199.00E+00
			10.00		198.86E+00
			10.50		198.73E+00
			11.00		198.62E+00
			11.50		198.51E+00
			12.00		198.36E+00
			12.50		198.17E+00
			13.00		198.01E+00
			13.50		197.89E+00
			14.00		197.77E+00
			14.50		197.68E+00
			15.00		197.56E+00
			15.50		197.36E+00
			16.00		197.17E+00
			16.50		197.05E+00
			17.00		196.93E+00
			17.50		196.82E+00
			18.00		196.68E+00
			18.50		196.46E+00
			19.00		196.23E+00
			19.50		196.00E+00
			20.00		195.76E+00
			20.50		195.55E+00
			21.00		195.32E+00
			21.50		195.09E+00
			22.00		194.83E+00
			22.50		194.60E+00
			23.00		194.37E+00
			23.50		194.17E+00
			24.00		194.00E+00
			24.50		193.81E+00
			25.00		193.60E+00
			25.50		193.38E+00
			26.00		193.15E+00
			26.50		192.93E+00
			27.00		192.71E+00
			27.50		192.49E+00
			28.00		192.21E+00
			28.50		191.95E+00
			29.00		191.64E+00
			29.50		191.32E+00
			30.00		191.04E+00
			30.50		190.76E+00
			31.00		190.48E+00
			31.50		190.21E+00
			32.00		189.91E+00
			32.50		189.60E+00
			33.00		189.29E+00
			33.50		188.97E+00
			34.00		188.65E+00
			34.50		188.35E+00
			35.00		188.04E+00
			35.50		187.71E+00
			36.00		187.37E+00
			36.50		187.05E+00
			37.00		186.73E+00
			37.50		186.42E+00
			38.00		186.10E+00
			38.50		185.82E+00
			39.00		185.51E+00
			39.50		185.21E+00
			40.00		184.90E+00
			40.50		184.57E+00
			41.00		184.23E+00
			41.50		183.90E+00
			42.00		183.55E+00
			42.50		183.23E+00
			43.00		182.89E+00
			43.50		182.55E+00
			44.00		182.18E+00
			44.50		181.80E+00
			45.00		181.42E+00
			45.50		181.02E+00
			46.00		180.67E+00
			46.50		180.30E+00
			47.00		179.97E+00
			47.50		179.63E+00
			48.00		179.27E+00
			48.50		178.91E+00
			49.00		178.51E+00
			49.50		178.08E+00
			50.00		177.65E+00
			50.50		177.24E+00
			51.00		176.85E+00
			51.50		176.45E+00
			52.00		176.05E+00
			52.50		175.63E+00
			53.00		175.20E+00
			53.50		174.80E+00
			54.00		174.41E+00
			54.50		174.02E+00
			55.00		173.65E+00
			55.50		173.18E+00
			56.00		172.70E+00
			56.50		172.22E+00
			57.00		171.72E+00
			57.50		171.26E+00
			58.00		170.85E+00
			58.50		170.42E+00
			59.00		169.96E+00
			59.50		169.51E+00
			60.00		169.05E+00
			60.50		168.60E+00
			61.00		168.16E+00
			61.50		167.71E+00
			62.00		167.21E+00
			62.50		166.71E+00
			63.00		166.21E+00
			63.50		165.71E+00
			64.00		165.24E+00
			64.50		164.79E+00
			65.00		164.32E+00
			65.50		163.85E+00
			66.00		163.39E+00
			66.50		162.92E+00
			67.00		162.43E+00
			67.50		161.93E+00
			68.00		161.40E+00
			68.50		160.85E+00
			69.00		160.29E+00
			69.50		159.72E+00
			70.00		159.15E+00
			70.50		158.57E+00
			71.00		157.99E+00
			71.50		157.39E+00
			72.00		156.80E+00
			72.50		156.23E+00
			73.00		155.65E+00
			73.50		155.07E+00
			74.00		154.49E+00
			74.50		153.86E+00
			75.00		153.20E+00
			75.50		152.54E+00
			76.00		151.89E+00
			76.50		151.16E+00
			77.00		150.31E+00
			77.50		149.46E+00
			78.00		148.47E+00
			78.50		147.46E+00
			79.00		146.21E+00
			79.50		144.91E+00
			80.00		143.10E+00
			80.50		141.19E+00
			81.00		138.92E+00
			81.50		136.57E+00
			82.00		133.42E+00
			82.50		129.82E+00
			83.00		125.54E+00
			83.50		120.70E+00
			84.00		115.35E+00
			84.50		109.33E+00
			85.00		103.19E+00
			85.50		96.876E+00
			86.00		90.533E+00
			86.50		84.017E+00
			87.00		77.517E+00
			87.50		71.223E+00
			88.00		64.984E+00
			88.50		59.560E+00
			89.00		54.211E+00
			89.50		49.834E+00
			90.00		45.680E+00
			90.50		42.357E+00
			91.00		39.452E+00
			91.50		37.189E+00
			92.00		35.330E+00
			92.50		33.819E+00
			93.00		32.694E+00
			93.50		31.667E+00
			94.00		30.904E+00
			94.50		30.199E+00
			95.00		29.596E+00
			95.50		29.010E+00
			96.00		28.531E+00
			96.50		28.051E+00
			97.00		27.589E+00
			97.50		27.142E+00
			98.00		26.765E+00
			98.50		26.399E+00
			99.00		26.016E+00
			99.50		25.617E+00
			100.00		25.275E+00
			100.50		24.965E+00
			101.00		24.661E+00
			101.50		24.383E+00
			102.00		24.077E+00
			102.50		23.733E+00
			103.00		23.432E+00
			103.50		23.247E+00
			104.00		23.054E+00
			104.50		22.784E+00
			105.00		22.502E+00
			105.50		22.241E+00
			106.00		21.991E+00
			106.50		21.715E+00
			107.00		21.414E+00
			107.50		21.144E+00
			108.00		20.910E+00
			108.50		20.674E+00
			109.00		20.428E+00
			109.50		20.209E+00
			110.00		20.029E+00
			110.50		19.846E+00
			111.00		19.617E+00
			111.50		19.394E+00
			112.00		19.197E+00
			112.50		18.987E+00
			113.00		18.742E+00
			113.50		18.510E+00
			114.00		18.379E+00
			114.50		18.250E+00
			115.00		18.043E+00
			115.50		17.827E+00
			116.00		17.660E+00
			116.50		17.516E+00
			117.00		17.307E+00
			117.50		17.058E+00
			118.00		16.868E+00
			118.50		16.726E+00
			119.00		16.557E+00
			119.50		16.338E+00
			120.00		16.155E+00
			120.50		16.073E+00
			121.00		15.977E+00
			121.50		15.820E+00
			122.00		15.656E+00
			122.50		15.490E+00
			123.00		15.330E+00
			123.50		15.208E+00
			124.00		15.084E+00
			124.50		14.925E+00
			125.00		14.752E+00
			125.50		14.589E+00
			126.00		14.438E+00
			126.50		14.285E+00
			127.00		14.127E+00
		END_DATA
	END_SCAN  5
	BEGIN_SCAN  6
		TASK_NAME=tba PDD Profiles
		PROGRAM=WaterTankScans
		COMMENT=FBF_SanPietro
		MEAS_DATE=08-Feb-2021 09:38:10
		LINAC=MRIdian
		MODALITY=X
		ISOCENTER=900.00
		INPLANE_AXIS=Y
		CROSSPLANE_AXIS=X
		DEPTH_AXIS=Depth
		INPLANE_AXIS_DIR=TARGET_GUN
		CROSSPLANE_AXIS_DIR=LEFT_RIGHT
		DEPTH_AXIS_DIR=UP_DOWN
		ENERGY=6.00
		NOMINAL_DMAX=15.00
		SSD=850.00
		SCD=450.00
		WEDGE_ANGLE=0.00
		FIELD_INPLANE=149.40
		FIELD_CROSSPLANE=149.40
		FIELD_TYPE=RECTANGULAR
		GANTRY=0.00
		GANTRY_UPRIGHT_POSITION=0
		GANTRY_ROTATION=CW
		COLL_ANGLE=0.00
		COLL_OFFSET_INPLANE=0.00
		COLL_OFFSET_CROSSPLANE=0.00
		SCAN_DEVICE=BeamScan
		SCAN_DEVICE_SETUP=BARA_LEFT_RIGHT
		ELECTROMETER=BeamScan
		RANGE_FIELD=LOW
		RANGE_REFERENCE=MEDIUM
		DETECTOR=THIMBLE_CHAMBER
		DETECTOR_RADIUS=2.40
		DETECTOR_NAME=A28MR
		DETECTOR_SN=-
		DETECTOR_CALIBRATION=588000000.00
		DETECTOR_IS_CALIBRATED=0
		DETECTOR_REFERENCE=THIMBLE_CHAMBER
		DETECTOR_REFERENCE_RADIUS=2.75
		DETECTOR_REFERENCE_NAME=A28MR
		DETECTOR_REFERENCE_SN=—
		DETECTOR_REFERENCE_IS_CALIBRATED=0
		DETECTOR_REFERENCE_CALIBRATION=303000000.00
		DETECTOR_HV=300.0
		DETECTOR_REFERENCE_HV=300.0
		DETECTOR_ORIENTATION=HORIZONTAL
		FILTER=FFF
		SCAN_SPEED_PROFILE=10.00
		SCAN_PROF_SPEED_DEP=DEPTH
		SCAN_SPEED_PDD=0.00
		SCAN_PDD_SPEED_DEP=ENERGY
		DETECTOR_TYPE=A28MR
		REF_FIELD_DEPTH=220.00
		REF_FIELD_DEFINED=ISOCENTER
		REF_FIELD_INPLANE=100.00
		REF_FIELD_CROSSPLANE=100.00
		REF_SCAN_POSITIONS=-85.00;-84.00;-83.00;-82.00;-81.00;-80.00;-79.00;-78.00;-77.00;-76.00;-75.00;-74.00;-73.00;-72.00;-71.00;-70.00;-69.00;-68.00;-67.00;-66.00;-65.00;-64.00;-63.00;-62.00;-61.00;-60.00;-59.00;-58.00;-57.00;-56.00;-55.00;-54.00;-53.00;-52.00;-51.00;-50.00;-49.00;-48.00;-47.00;-46.00;-45.00;-44.00;-43.00;-42.00;-41.00;-40.00;-39.00;-38.00;-37.00;-36.00;-35.00;-34.00;-33.00;-32.00;-31.00;-30.00;-29.00;-28.00;-27.00;-26.00;-25.00;-24.00;-23.00;-22.00;-21.00;-20.00;-19.00;-18.00;-17.00;-16.00;-15.00;-14.00;-13.00;-12.00;-11.00;-10.00;-9.00;-8.00;-7.00;-6.00;-5.00;-4.00;-3.00;-2.00;-1.00;0.00;1.00;2.00;3.00;4.00;5.00;6.00;7.00;8.00;9.00;10.00;11.00;12.00;13.00;14.00;15.00;16.00;17.00;18.00;19.00;20.00;21.00;22.00;23.00;24.00;25.00;26.00;27.00;28.00;29.00;30.00;31.00;32.00;33.00;34.00;35.00;36.00;37.00;38.00;39.00;40.00;41.00;42.00;43.00;44.00;45.00;46.00;47.00;48.00;49.00;50.00;51.00;52.00;53.00;54.00;55.00;56.00;57.00;58.00;59.00;60.00;61.00;62.00;63.00;64.00;65.00;66.00;67.00;68.00;69.00;70.00;71.00;72.00;73.00;74.00;75.00;76.00;77.00;78.00;79.00;80.00;81.00;82.00;83.00;84.00;85.00;
		REF_OVERSCAN_FACTOR=1.00
		SCAN_CURVETYPE=CROSSPLANE_PROFILE
		SCAN_DEPTH=250.00
		SCAN_OFFAXIS_INPLANE=0.00
		SCAN_OFFAXIS_CROSSPLANE=0.00
		SCAN_ANGLE=0.00
		SCAN_DIAGONAL=NOT_DIAGONAL
		SCAN_DIRECTION=POSITIVE
		MEAS_MEDIUM=WATER
		MEAS_PRESET=MEAS_CONTINUOUS_REFERENCE_SCAN
		MEAS_TIME=0.100
		MEAS_UNIT=A.U.
		INCLINATION_ANGLE=0.00
		PRESSURE=1013.25
		TEMPERATURE=20.00
		NORM_TEMPERATURE=20.00
		CORRECTION_FACTOR=1.0000
		EXPECTED_MAX_DOSE_RATE=3.00
		EPOM_DEPTH_SHIFT=0.2
		EPOM_MODE=SHIFT_PROTOCOL
		CORRECTIONS=SMOOTHED_CORR;CAX_CORR;INTERPOLATED_CORR;SYMMETRY_CORR;
		BEGIN_DATA
			-126.50		13.267E+00
			-126.00		13.404E+00
			-125.50		13.556E+00
			-125.00		13.705E+00
			-124.50		13.833E+00
			-124.00		13.956E+00
			-123.50		14.076E+00
			-123.00		14.197E+00
			-122.50		14.337E+00
			-122.00		14.488E+00
			-121.50		14.641E+00
			-121.00		14.809E+00
			-120.50		14.969E+00
			-120.00		15.094E+00
			-119.50		15.222E+00
			-119.00		15.338E+00
			-118.50		15.453E+00
			-118.00		15.620E+00
			-117.50		15.789E+00
			-117.00		15.961E+00
			-116.50		16.144E+00
			-116.00		16.277E+00
			-115.50		16.379E+00
			-115.00		16.562E+00
			-114.50		16.799E+00
			-114.00		16.990E+00
			-113.50		17.124E+00
			-113.00		17.261E+00
			-112.50		17.419E+00
			-112.00		17.595E+00
			-111.50		17.788E+00
			-111.00		17.971E+00
			-110.50		18.143E+00
			-110.00		18.318E+00
			-109.50		18.563E+00
			-109.00		18.807E+00
			-108.50		18.965E+00
			-108.00		19.113E+00
			-107.50		19.341E+00
			-107.00		19.594E+00
			-106.50		19.830E+00
			-106.00		20.059E+00
			-105.50		20.316E+00
			-105.00		20.586E+00
			-104.50		20.831E+00
			-104.00		21.068E+00
			-103.50		21.312E+00
			-103.00		21.556E+00
			-102.50		21.803E+00
			-102.00		22.086E+00
			-101.50		22.388E+00
			-101.00		22.738E+00
			-100.50		23.085E+00
			-100.00		23.448E+00
			-99.50		23.817E+00
			-99.00		24.257E+00
			-98.50		24.700E+00
			-98.00		25.287E+00
			-97.50		25.941E+00
			-97.00		26.733E+00
			-96.50		27.600E+00
			-96.00		28.737E+00
			-95.50		30.145E+00
			-95.00		31.840E+00
			-94.50		34.023E+00
			-94.00		36.466E+00
			-93.50		39.576E+00
			-93.00		42.798E+00
			-92.50		46.667E+00
			-92.00		50.576E+00
			-91.50		55.007E+00
			-91.00		59.453E+00
			-90.50		64.100E+00
			-90.00		68.764E+00
			-89.50		73.333E+00
			-89.00		77.872E+00
			-88.50		82.053E+00
			-88.00		86.104E+00
			-87.50		89.854E+00
			-87.00		93.319E+00
			-86.50		96.339E+00
			-86.00		98.870E+00
			-85.50		101.15E+00
			-85.00		102.93E+00
			-84.50		104.57E+00
			-84.00		105.86E+00
			-83.50		107.10E+00
			-83.00		108.08E+00
			-82.50		109.03E+00
			-82.00		109.71E+00
			-81.50		110.39E+00
			-81.00		111.07E+00
			-80.50		111.74E+00
			-80.00		112.33E+00
			-79.50		112.92E+00
			-79.00		113.45E+00
			-78.50		113.95E+00
			-78.00		114.43E+00
			-77.50		114.90E+00
			-77.00		115.35E+00
			-76.50		115.75E+00
			-76.00		116.16E+00
			-75.50		116.55E+00
			-75.00		116.94E+00
			-74.50		117.32E+00
			-74.00		117.71E+00
			-73.50		118.07E+00
			-73.00		118.45E+00
			-72.50		118.86E+00
			-72.00		119.26E+00
			-71.50		119.65E+00
			-71.00		120.03E+00
			-70.50		120.38E+00
			-70.00		120.73E+00
			-69.50		121.10E+00
			-69.00		121.49E+00
			-68.50		121.88E+00
			-68.00		122.24E+00
			-67.50		122.62E+00
			-67.00		122.97E+00
			-66.50		123.32E+00
			-66.00		123.66E+00
			-65.50		123.99E+00
			-65.00		124.28E+00
			-64.50		124.56E+00
			-64.00		124.87E+00
			-63.50		125.18E+00
			-63.00		125.54E+00
			-62.50		125.91E+00
			-62.00		126.31E+00
			-61.50		126.70E+00
			-61.00		127.05E+00
			-60.50		127.40E+00
			-60.00		127.72E+00
			-59.50		128.03E+00
			-59.00		128.32E+00
			-58.50		128.58E+00
			-58.00		128.86E+00
			-57.50		129.17E+00
			-57.00		129.49E+00
			-56.50		129.83E+00
			-56.00		130.18E+00
			-55.50		130.47E+00
			-55.00		130.76E+00
			-54.50		131.08E+00
			-54.00		131.38E+00
			-53.50		131.67E+00
			-53.00		131.95E+00
			-52.50		132.20E+00
			-52.00		132.44E+00
			-51.50		132.70E+00
			-51.00		132.95E+00
			-50.50		133.21E+00
			-50.00		133.46E+00
			-49.50		133.73E+00
			-49.00		134.01E+00
			-48.50		134.29E+00
			-48.00		134.58E+00
			-47.50		134.88E+00
			-47.00		135.17E+00
			-46.50		135.46E+00
			-46.00		135.72E+00
			-45.50		135.99E+00
			-45.00		136.23E+00
			-44.50		136.46E+00
			-44.00		136.68E+00
			-43.50		136.89E+00
			-43.00		137.14E+00
			-42.50		137.39E+00
			-42.00		137.64E+00
			-41.50		137.88E+00
			-41.00		138.14E+00
			-40.50		138.42E+00
			-40.00		138.71E+00
			-39.50		139.04E+00
			-39.00		139.32E+00
			-38.50		139.55E+00
			-38.00		139.77E+00
			-37.50		139.98E+00
			-37.00		140.19E+00
			-36.50		140.39E+00
			-36.00		140.59E+00
			-35.50		140.74E+00
			-35.00		140.89E+00
			-34.50		141.11E+00
			-34.00		141.36E+00
			-33.50		141.63E+00
			-33.00		141.90E+00
			-32.50		142.12E+00
			-32.00		142.29E+00
			-31.50		142.47E+00
			-31.00		142.63E+00
			-30.50		142.81E+00
			-30.00		143.02E+00
			-29.50		143.24E+00
			-29.00		143.43E+00
			-28.50		143.64E+00
			-28.00		143.80E+00
			-27.50		143.97E+00
			-27.00		144.15E+00
			-26.50		144.33E+00
			-26.00		144.54E+00
			-25.50		144.74E+00
			-25.00		144.96E+00
			-24.50		145.17E+00
			-24.00		145.35E+00
			-23.50		145.51E+00
			-23.00		145.61E+00
			-22.50		145.70E+00
			-22.00		145.81E+00
			-21.50		145.95E+00
			-21.00		146.10E+00
			-20.50		146.25E+00
			-20.00		146.38E+00
			-19.50		146.43E+00
			-19.00		146.48E+00
			-18.50		146.57E+00
			-18.00		146.67E+00
			-17.50		146.80E+00
			-17.00		146.95E+00
			-16.50		147.10E+00
			-16.00		147.24E+00
			-15.50		147.38E+00
			-15.00		147.51E+00
			-14.50		147.62E+00
			-14.00		147.70E+00
			-13.50		147.79E+00
			-13.00		147.90E+00
			-12.50		148.02E+00
			-12.00		148.18E+00
			-11.50		148.33E+00
			-11.00		148.43E+00
			-10.50		148.51E+00
			-10.00		148.55E+00
			-9.50		148.60E+00
			-9.00		148.63E+00
			-8.50		148.67E+00
			-8.00		148.73E+00
			-7.50		148.79E+00
			-7.00		148.84E+00
			-6.50		148.90E+00
			-6.00		148.94E+00
			-5.50		148.99E+00
			-5.00		149.01E+00
			-4.50		149.01E+00
			-4.00		149.01E+00
			-3.50		149.01E+00
			-3.00		149.05E+00
			-2.50		149.16E+00
			-2.00		149.27E+00
			-1.50		149.37E+00
			-1.00		149.45E+00
			-0.50		149.46E+00
			0.00		149.47E+00
			0.50		149.46E+00
			1.00		149.45E+00
			1.50		149.37E+00
			2.00		149.27E+00
			2.50		149.16E+00
			3.00		149.05E+00
			3.50		149.01E+00
			4.00		149.01E+00
			4.50		149.01E+00
			5.00		149.01E+00
			5.50		148.99E+00
			6.00		148.94E+00
			6.50		148.90E+00
			7.00		148.84E+00
			7.50		148.79E+00
			8.00		148.73E+00
			8.50		148.67E+00
			9.00		148.63E+00
			9.50		148.60E+00
			10.00		148.55E+00
			10.50		148.51E+00
			11.00		148.43E+00
			11.50		148.33E+00
			12.00		148.18E+00
			12.50		148.02E+00
			13.00		147.90E+00
			13.50		147.79E+00
			14.00		147.70E+00
			14.50		147.62E+00
			15.00		147.51E+00
			15.50		147.38E+00
			16.00		147.24E+00
			16.50		147.10E+00
			17.00		146.95E+00
			17.50		146.80E+00
			18.00		146.67E+00
			18.50		146.57E+00
			19.00		146.48E+00
			19.50		146.43E+00
			20.00		146.38E+00
			20.50		146.25E+00
			21.00		146.10E+00
			21.50		145.95E+00
			22.00		145.81E+00
			22.50		145.70E+00
			23.00		145.61E+00
			23.50		145.51E+00
			24.00		145.35E+00
			24.50		145.17E+00
			25.00		144.96E+00
			25.50		144.74E+00
			26.00		144.54E+00
			26.50		144.33E+00
			27.00		144.15E+00
			27.50		143.97E+00
			28.00		143.80E+00
			28.50		143.64E+00
			29.00		143.43E+00
			29.50		143.24E+00
			30.00		143.02E+00
			30.50		142.81E+00
			31.00		142.63E+00
			31.50		142.47E+00
			32.00		142.29E+00
			32.50		142.12E+00
			33.00		141.90E+00
			33.50		141.63E+00
			34.00		141.36E+00
			34.50		141.11E+00
			35.00		140.89E+00
			35.50		140.74E+00
			36.00		140.59E+00
			36.50		140.39E+00
			37.00		140.19E+00
			37.50		139.98E+00
			38.00		139.77E+00
			38.50		139.55E+00
			39.00		139.32E+00
			39.50		139.04E+00
			40.00		138.71E+00
			40.50		138.42E+00
			41.00		138.14E+00
			41.50		137.88E+00
			42.00		137.64E+00
			42.50		137.39E+00
			43.00		137.14E+00
			43.50		136.89E+00
			44.00		136.68E+00
			44.50		136.46E+00
			45.00		136.23E+00
			45.50		135.99E+00
			46.00		135.72E+00
			46.50		135.46E+00
			47.00		135.17E+00
			47.50		134.88E+00
			48.00		134.58E+00
			48.50		134.29E+00
			49.00		134.01E+00
			49.50		133.73E+00
			50.00		133.46E+00
			50.50		133.21E+00
			51.00		132.95E+00
			51.50		132.70E+00
			52.00		132.44E+00
			52.50		132.20E+00
			53.00		131.95E+00
			53.50		131.67E+00
			54.00		131.38E+00
			54.50		131.08E+00
			55.00		130.76E+00
			55.50		130.47E+00
			56.00		130.18E+00
			56.50		129.83E+00
			57.00		129.49E+00
			57.50		129.17E+00
			58.00		128.86E+00
			58.50		128.58E+00
			59.00		128.32E+00
			59.50		128.03E+00
			60.00		127.72E+00
			60.50		127.40E+00
			61.00		127.05E+00
			61.50		126.70E+00
			62.00		126.31E+00
			62.50		125.91E+00
			63.00		125.54E+00
			63.50		125.18E+00
			64.00		124.87E+00
			64.50		124.56E+00
			65.00		124.28E+00
			65.50		123.99E+00
			66.00		123.66E+00
			66.50		123.32E+00
			67.00		122.97E+00
			67.50		122.62E+00
			68.00		122.24E+00
			68.50		121.88E+00
			69.00		121.49E+00
			69.50		121.10E+00
			70.00		120.73E+00
			70.50		120.38E+00
			71.00		120.03E+00
			71.50		119.65E+00
			72.00		119.26E+00
			72.50		118.86E+00
			73.00		118.45E+00
			73.50		118.07E+00
			74.00		117.71E+00
			74.50		117.32E+00
			75.00		116.94E+00
			75.50		116.55E+00
			76.00		116.16E+00
			76.50		115.75E+00
			77.00		115.35E+00
			77.50		114.90E+00
			78.00		114.43E+00
			78.50		113.95E+00
			79.00		113.45E+00
			79.50		112.92E+00
			80.00		112.33E+00
			80.50		111.74E+00
			81.00		111.07E+00
			81.50		110.39E+00
			82.00		109.71E+00
			82.50		109.03E+00
			83.00		108.08E+00
			83.50		107.10E+00
			84.00		105.86E+00
			84.50		104.57E+00
			85.00		102.93E+00
			85.50		101.15E+00
			86.00		98.870E+00
			86.50		96.339E+00
			87.00		93.319E+00
			87.50		89.854E+00
			88.00		86.104E+00
			88.50		82.053E+00
			89.00		77.872E+00
			89.50		73.333E+00
			90.00		68.764E+00
			90.50		64.100E+00
			91.00		59.453E+00
			91.50		55.007E+00
			92.00		50.576E+00
			92.50		46.667E+00
			93.00		42.798E+00
			93.50		39.576E+00
			94.00		36.466E+00
			94.50		34.023E+00
			95.00		31.840E+00
			95.50		30.145E+00
			96.00		28.737E+00
			96.50		27.600E+00
			97.00		26.733E+00
			97.50		25.941E+00
			98.00		25.287E+00
			98.50		24.700E+00
			99.00		24.257E+00
			99.50		23.817E+00
			100.00		23.448E+00
			100.50		23.085E+00
			101.00		22.738E+00
			101.50		22.388E+00
			102.00		22.086E+00
			102.50		21.803E+00
			103.00		21.556E+00
			103.50		21.312E+00
			104.00		21.068E+00
			104.50		20.831E+00
			105.00		20.586E+00
			105.50		20.316E+00
			106.00		20.059E+00
			106.50		19.830E+00
			107.00		19.594E+00
			107.50		19.341E+00
			108.00		19.113E+00
			108.50		18.965E+00
			109.00		18.807E+00
			109.50		18.563E+00
			110.00		18.318E+00
			110.50		18.143E+00
			111.00		17.971E+00
			111.50		17.788E+00
			112.00		17.595E+00
			112.50		17.419E+00
			113.00		17.261E+00
			113.50		17.124E+00
			114.00		16.990E+00
			114.50		16.799E+00
			115.00		16.562E+00
			115.50		16.379E+00
			116.00		16.277E+00
			116.50		16.144E+00
			117.00		15.961E+00
			117.50		15.789E+00
			118.00		15.620E+00
			118.50		15.453E+00
			119.00		15.338E+00
			119.50		15.222E+00
			120.00		15.094E+00
			120.50		14.969E+00
			121.00		14.809E+00
			121.50		14.641E+00
			122.00		14.488E+00
			122.50		14.337E+00
			123.00		14.197E+00
			123.50		14.076E+00
			124.00		13.956E+00
			124.50		13.833E+00
			125.00		13.705E+00
			125.50		13.556E+00
			126.00		13.404E+00
			126.50		13.267E+00
		END_DATA
	END_SCAN  6
	BEGIN_SCAN  7
		TASK_NAME=tba PDD Profiles
		PROGRAM=WaterTankScans
		COMMENT=FBF_SanPietro
		MEAS_DATE=08-Feb-2021 09:38:10
		LINAC=MRIdian
		MODALITY=X
		ISOCENTER=900.00
		INPLANE_AXIS=Y
		CROSSPLANE_AXIS=X
		DEPTH_AXIS=Depth
		INPLANE_AXIS_DIR=TARGET_GUN
		CROSSPLANE_AXIS_DIR=LEFT_RIGHT
		DEPTH_AXIS_DIR=UP_DOWN
		ENERGY=6.00
		NOMINAL_DMAX=15.00
		SSD=850.00
		SCD=450.00
		WEDGE_ANGLE=0.00
		FIELD_INPLANE=149.40
		FIELD_CROSSPLANE=149.40
		FIELD_TYPE=RECTANGULAR
		GANTRY=0.00
		GANTRY_UPRIGHT_POSITION=0
		GANTRY_ROTATION=CW
		COLL_ANGLE=0.00
		COLL_OFFSET_INPLANE=0.00
		COLL_OFFSET_CROSSPLANE=0.00
		SCAN_DEVICE=BeamScan
		SCAN_DEVICE_SETUP=BARA_LEFT_RIGHT
		ELECTROMETER=BeamScan
		RANGE_FIELD=LOW
		RANGE_REFERENCE=MEDIUM
		DETECTOR=THIMBLE_CHAMBER
		DETECTOR_RADIUS=2.40
		DETECTOR_NAME=A28MR
		DETECTOR_SN=-
		DETECTOR_CALIBRATION=588000000.00
		DETECTOR_IS_CALIBRATED=0
		DETECTOR_REFERENCE=THIMBLE_CHAMBER
		DETECTOR_REFERENCE_RADIUS=2.75
		DETECTOR_REFERENCE_NAME=A28MR
		DETECTOR_REFERENCE_SN=—
		DETECTOR_REFERENCE_IS_CALIBRATED=0
		DETECTOR_REFERENCE_CALIBRATION=303000000.00
		DETECTOR_HV=300.0
		DETECTOR_REFERENCE_HV=300.0
		DETECTOR_ORIENTATION=HORIZONTAL
		FILTER=FFF
		SCAN_SPEED_PROFILE=10.00
		SCAN_PROF_SPEED_DEP=DEPTH
		SCAN_SPEED_PDD=0.00
		SCAN_PDD_SPEED_DEP=ENERGY
		DETECTOR_TYPE=A28MR
		REF_FIELD_DEPTH=220.00
		REF_FIELD_DEFINED=ISOCENTER
		REF_FIELD_INPLANE=100.00
		REF_FIELD_CROSSPLANE=100.00
		REF_SCAN_POSITIONS=-85.00;-84.00;-83.00;-82.00;-81.00;-80.00;-79.00;-78.00;-77.00;-76.00;-75.00;-74.00;-73.00;-72.00;-71.00;-70.00;-69.00;-68.00;-67.00;-66.00;-65.00;-64.00;-63.00;-62.00;-61.00;-60.00;-59.00;-58.00;-57.00;-56.00;-55.00;-54.00;-53.00;-52.00;-51.00;-50.00;-49.00;-48.00;-47.00;-46.00;-45.00;-44.00;-43.00;-42.00;-41.00;-40.00;-39.00;-38.00;-37.00;-36.00;-35.00;-34.00;-33.00;-32.00;-31.00;-30.00;-29.00;-28.00;-27.00;-26.00;-25.00;-24.00;-23.00;-22.00;-21.00;-20.00;-19.00;-18.00;-17.00;-16.00;-15.00;-14.00;-13.00;-12.00;-11.00;-10.00;-9.00;-8.00;-7.00;-6.00;-5.00;-4.00;-3.00;-2.00;-1.00;0.00;1.00;2.00;3.00;4.00;5.00;6.00;7.00;8.00;9.00;10.00;11.00;12.00;13.00;14.00;15.00;16.00;17.00;18.00;19.00;20.00;21.00;22.00;23.00;24.00;25.00;26.00;27.00;28.00;29.00;30.00;31.00;32.00;33.00;34.00;35.00;36.00;37.00;38.00;39.00;40.00;41.00;42.00;43.00;44.00;45.00;46.00;47.00;48.00;49.00;50.00;51.00;52.00;53.00;54.00;55.00;56.00;57.00;58.00;59.00;60.00;61.00;62.00;63.00;64.00;65.00;66.00;67.00;68.00;69.00;70.00;71.00;72.00;73.00;74.00;75.00;76.00;77.00;78.00;79.00;80.00;81.00;82.00;83.00;84.00;85.00;
		REF_OVERSCAN_FACTOR=1.00
		SCAN_CURVETYPE=CROSSPLANE_PROFILE
		SCAN_DEPTH=285.00
		SCAN_OFFAXIS_INPLANE=0.00
		SCAN_OFFAXIS_CROSSPLANE=0.00
		SCAN_ANGLE=0.00
		SCAN_DIAGONAL=NOT_DIAGONAL
		SCAN_DIRECTION=POSITIVE
		MEAS_MEDIUM=WATER
		MEAS_PRESET=MEAS_CONTINUOUS_REFERENCE_SCAN
		MEAS_TIME=0.100
		MEAS_UNIT=A.U.
		INCLINATION_ANGLE=0.00
		PRESSURE=1013.25
		TEMPERATURE=20.00
		NORM_TEMPERATURE=20.00
		CORRECTION_FACTOR=1.0000
		EXPECTED_MAX_DOSE_RATE=3.00
		EPOM_DEPTH_SHIFT=0.2
		EPOM_MODE=SHIFT_PROTOCOL
		CORRECTIONS=SMOOTHED_CORR;MODIFIED_CORR;MIRROR_CORR;HALFSIDE_CORR;SYMMETRY_CORR;CAX_CORR;INTERPOLATED_CORR;
		BEGIN_DATA
			-126.50		12.083E+00
			-126.00		12.255E+00
			-125.50		12.392E+00
			-125.00		12.448E+00
			-124.50		12.511E+00
			-124.00		12.627E+00
			-123.50		12.741E+00
			-123.00		12.798E+00
			-122.50		12.856E+00
			-122.00		13.071E+00
			-121.50		13.299E+00
			-121.00		13.439E+00
			-120.50		13.558E+00
			-120.00		13.714E+00
			-119.50		13.883E+00
			-119.00		13.952E+00
			-118.50		13.952E+00
			-118.00		14.035E+00
			-117.50		14.207E+00
			-117.00		14.380E+00
			-116.50		14.552E+00
			-116.00		14.710E+00
			-115.50		14.826E+00
			-115.00		14.951E+00
			-114.50		15.122E+00
			-114.00		15.290E+00
			-113.50		15.404E+00
			-113.00		15.518E+00
			-112.50		15.686E+00
			-112.00		15.860E+00
			-111.50		16.032E+00
			-111.00		16.202E+00
			-110.50		16.413E+00
			-110.00		16.643E+00
			-109.50		16.809E+00
			-109.00		16.928E+00
			-108.50		17.072E+00
			-108.00		17.239E+00
			-107.50		17.449E+00
			-107.00		17.739E+00
			-106.50		17.999E+00
			-106.00		18.172E+00
			-105.50		18.361E+00
			-105.00		18.651E+00
			-104.50		18.938E+00
			-104.00		19.165E+00
			-103.50		19.393E+00
			-103.00		19.728E+00
			-102.50		20.073E+00
			-102.00		20.467E+00
			-101.50		20.873E+00
			-101.00		21.396E+00
			-100.50		21.965E+00
			-100.00		22.578E+00
			-99.50		23.223E+00
			-99.00		24.092E+00
			-98.50		25.173E+00
			-98.00		26.427E+00
			-97.50		27.963E+00
			-97.00		29.700E+00
			-96.50		32.045E+00
			-96.00		34.505E+00
			-95.50		37.490E+00
			-95.00		40.492E+00
			-94.50		44.111E+00
			-94.00		47.731E+00
			-93.50		51.043E+00
			-93.00		54.326E+00
			-92.50		58.071E+00
			-92.00		61.902E+00
			-91.50		65.428E+00
			-91.00		68.817E+00
			-90.50		71.824E+00
			-90.00		74.551E+00
			-89.50		77.041E+00
			-89.00		79.282E+00
			-88.50		81.236E+00
			-88.00		82.715E+00
			-87.50		84.165E+00
			-87.00		85.528E+00
			-86.50		86.723E+00
			-86.00		87.235E+00
			-85.50		87.758E+00
			-85.00		88.437E+00
			-84.50		89.116E+00
			-84.00		89.673E+00
			-83.50		90.218E+00
			-83.00		90.639E+00
			-82.50		91.029E+00
			-82.00		91.428E+00
			-81.50		91.831E+00
			-81.00		92.226E+00
			-80.50		92.615E+00
			-80.00		92.980E+00
			-79.50		93.322E+00
			-79.00		93.649E+00
			-78.50		93.949E+00
			-78.00		94.253E+00
			-77.50		94.569E+00
			-77.00		94.892E+00
			-76.50		95.251E+00
			-76.00		95.609E+00
			-75.50		95.911E+00
			-75.00		96.213E+00
			-74.50		96.500E+00
			-74.00		96.787E+00
			-73.50		97.062E+00
			-73.00		97.334E+00
			-72.50		97.568E+00
			-72.00		97.784E+00
			-71.50		98.024E+00
			-71.00		98.283E+00
			-70.50		98.597E+00
			-70.00		98.969E+00
			-69.50		99.342E+00
			-69.00		99.716E+00
			-68.50		100.06E+00
			-68.00		100.29E+00
			-67.50		100.51E+00
			-67.00		100.70E+00
			-66.50		100.88E+00
			-66.00		101.20E+00
			-65.50		101.52E+00
			-65.00		101.86E+00
			-64.50		102.21E+00
			-64.00		102.46E+00
			-63.50		102.69E+00
			-63.00		102.91E+00
			-62.50		103.12E+00
			-62.00		103.37E+00
			-61.50		103.64E+00
			-61.00		103.92E+00
			-60.50		104.19E+00
			-60.00		104.46E+00
			-59.50		104.72E+00
			-59.00		104.98E+00
			-58.50		105.27E+00
			-58.00		105.55E+00
			-57.50		105.83E+00
			-57.00		106.10E+00
			-56.50		106.27E+00
			-56.00		106.44E+00
			-55.50		106.58E+00
			-55.00		106.71E+00
			-54.50		106.91E+00
			-54.00		107.12E+00
			-53.50		107.39E+00
			-53.00		107.67E+00
			-52.50		107.95E+00
			-52.00		108.21E+00
			-51.50		108.43E+00
			-51.00		108.62E+00
			-50.50		108.79E+00
			-50.00		108.95E+00
			-49.50		109.12E+00
			-49.00		109.35E+00
			-48.50		109.58E+00
			-48.00		109.83E+00
			-47.50		110.07E+00
			-47.00		110.26E+00
			-46.50		110.45E+00
			-46.00		110.64E+00
			-45.50		110.84E+00
			-45.00		111.08E+00
			-44.50		111.32E+00
			-44.00		111.57E+00
			-43.50		111.81E+00
			-43.00		112.03E+00
			-42.50		112.23E+00
			-42.00		112.42E+00
			-41.50		112.59E+00
			-41.00		112.78E+00
			-40.50		113.01E+00
			-40.00		113.24E+00
			-39.50		113.47E+00
			-39.00		113.69E+00
			-38.50		113.81E+00
			-38.00		113.92E+00
			-37.50		114.10E+00
			-37.00		114.27E+00
			-36.50		114.52E+00
			-36.00		114.77E+00
			-35.50		114.96E+00
			-35.00		115.11E+00
			-34.50		115.24E+00
			-34.00		115.36E+00
			-33.50		115.49E+00
			-33.00		115.63E+00
			-32.50		115.77E+00
			-32.00		115.90E+00
			-31.50		116.03E+00
			-31.00		116.16E+00
			-30.50		116.29E+00
			-30.00		116.43E+00
			-29.50		116.58E+00
			-29.00		116.73E+00
			-28.50		116.89E+00
			-28.00		117.06E+00
			-27.50		117.24E+00
			-27.00		117.38E+00
			-26.50		117.53E+00
			-26.00		117.63E+00
			-25.50		117.71E+00
			-25.00		117.83E+00
			-24.50		117.96E+00
			-24.00		118.13E+00
			-23.50		118.33E+00
			-23.00		118.51E+00
			-22.50		118.67E+00
			-22.00		118.82E+00
			-21.50		118.94E+00
			-21.00		119.07E+00
			-20.50		119.19E+00
			-20.00		119.30E+00
			-19.50		119.40E+00
			-19.00		119.50E+00
			-18.50		119.60E+00
			-18.00		119.70E+00
			-17.50		119.79E+00
			-17.00		119.88E+00
			-16.50		119.95E+00
			-16.00		120.02E+00
			-15.50		120.07E+00
			-15.00		120.09E+00
			-14.50		120.15E+00
			-14.00		120.24E+00
			-13.50		120.37E+00
			-13.00		120.54E+00
			-12.50		120.68E+00
			-12.00		120.77E+00
			-11.50		120.84E+00
			-11.00		120.84E+00
			-10.50		120.84E+00
			-10.00		120.85E+00
			-9.50		120.87E+00
			-9.00		120.89E+00
			-8.50		120.92E+00
			-8.00		120.96E+00
			-7.50		121.01E+00
			-7.00		121.05E+00
			-6.50		121.09E+00
			-6.00		121.15E+00
			-5.50		121.20E+00
			-5.00		121.28E+00
			-4.50		121.38E+00
			-4.00		121.48E+00
			-3.50		121.57E+00
			-3.00		121.63E+00
			-2.50		121.64E+00
			-2.00		121.64E+00
			-1.50		121.57E+00
			-1.00		121.50E+00
			-0.50		121.44E+00
			0.00		121.38E+00
			0.50		121.44E+00
			1.00		121.50E+00
			1.50		121.57E+00
			2.00		121.64E+00
			2.50		121.64E+00
			3.00		121.63E+00
			3.50		121.57E+00
			4.00		121.48E+00
			4.50		121.38E+00
			5.00		121.28E+00
			5.50		121.20E+00
			6.00		121.15E+00
			6.50		121.09E+00
			7.00		121.05E+00
			7.50		121.01E+00
			8.00		120.96E+00
			8.50		120.92E+00
			9.00		120.89E+00
			9.50		120.87E+00
			10.00		120.85E+00
			10.50		120.84E+00
			11.00		120.84E+00
			11.50		120.84E+00
			12.00		120.77E+00
			12.50		120.68E+00
			13.00		120.54E+00
			13.50		120.37E+00
			14.00		120.24E+00
			14.50		120.15E+00
			15.00		120.09E+00
			15.50		120.07E+00
			16.00		120.02E+00
			16.50		119.95E+00
			17.00		119.88E+00
			17.50		119.79E+00
			18.00		119.70E+00
			18.50		119.60E+00
			19.00		119.50E+00
			19.50		119.40E+00
			20.00		119.30E+00
			20.50		119.19E+00
			21.00		119.07E+00
			21.50		118.94E+00
			22.00		118.82E+00
			22.50		118.67E+00
			23.00		118.51E+00
			23.50		118.33E+00
			24.00		118.13E+00
			24.50		117.96E+00
			25.00		117.83E+00
			25.50		117.71E+00
			26.00		117.63E+00
			26.50		117.53E+00
			27.00		117.38E+00
			27.50		117.24E+00
			28.00		117.06E+00
			28.50		116.89E+00
			29.00		116.73E+00
			29.50		116.58E+00
			30.00		116.43E+00
			30.50		116.29E+00
			31.00		116.16E+00
			31.50		116.03E+00
			32.00		115.90E+00
			32.50		115.77E+00
			33.00		115.63E+00
			33.50		115.49E+00
			34.00		115.36E+00
			34.50		115.24E+00
			35.00		115.11E+00
			35.50		114.96E+00
			36.00		114.77E+00
			36.50		114.52E+00
			37.00		114.27E+00
			37.50		114.10E+00
			38.00		113.92E+00
			38.50		113.81E+00
			39.00		113.69E+00
			39.50		113.47E+00
			40.00		113.24E+00
			40.50		113.01E+00
			41.00		112.78E+00
			41.50		112.59E+00
			42.00		112.42E+00
			42.50		112.23E+00
			43.00		112.03E+00
			43.50		111.81E+00
			44.00		111.57E+00
			44.50		111.32E+00
			45.00		111.08E+00
			45.50		110.84E+00
			46.00		110.64E+00
			46.50		110.45E+00
			47.00		110.26E+00
			47.50		110.07E+00
			48.00		109.83E+00
			48.50		109.58E+00
			49.00		109.35E+00
			49.50		109.12E+00
			50.00		108.95E+00
			50.50		108.79E+00
			51.00		108.62E+00
			51.50		108.43E+00
			52.00		108.21E+00
			52.50		107.95E+00
			53.00		107.67E+00
			53.50		107.39E+00
			54.00		107.12E+00
			54.50		106.91E+00
			55.00		106.71E+00
			55.50		106.58E+00
			56.00		106.44E+00
			56.50		106.27E+00
			57.00		106.10E+00
			57.50		105.83E+00
			58.00		105.55E+00
			58.50		105.27E+00
			59.00		104.98E+00
			59.50		104.72E+00
			60.00		104.46E+00
			60.50		104.19E+00
			61.00		103.92E+00
			61.50		103.64E+00
			62.00		103.37E+00
			62.50		103.12E+00
			63.00		102.91E+00
			63.50		102.69E+00
			64.00		102.46E+00
			64.50		102.21E+00
			65.00		101.86E+00
			65.50		101.52E+00
			66.00		101.20E+00
			66.50		100.88E+00
			67.00		100.70E+00
			67.50		100.51E+00
			68.00		100.29E+00
			68.50		100.06E+00
			69.00		99.716E+00
			69.50		99.342E+00
			70.00		98.969E+00
			70.50		98.597E+00
			71.00		98.283E+00
			71.50		98.024E+00
			72.00		97.784E+00
			72.50		97.568E+00
			73.00		97.334E+00
			73.50		97.062E+00
			74.00		96.787E+00
			74.50		96.500E+00
			75.00		96.213E+00
			75.50		95.911E+00
			76.00		95.609E+00
			76.50		95.251E+00
			77.00		94.892E+00
			77.50		94.569E+00
			78.00		94.253E+00
			78.50		93.949E+00
			79.00		93.649E+00
			79.50		93.322E+00
			80.00		92.980E+00
			80.50		92.615E+00
			81.00		92.226E+00
			81.50		91.831E+00
			82.00		91.428E+00
			82.50		91.029E+00
			83.00		90.639E+00
			83.50		90.218E+00
			84.00		89.673E+00
			84.50		89.116E+00
			85.00		88.437E+00
			85.50		87.758E+00
			86.00		87.235E+00
			86.50		86.723E+00
			87.00		85.528E+00
			87.50		84.165E+00
			88.00		82.715E+00
			88.50		81.236E+00
			89.00		79.282E+00
			89.50		77.041E+00
			90.00		74.551E+00
			90.50		71.824E+00
			91.00		68.817E+00
			91.50		65.428E+00
			92.00		61.902E+00
			92.50		58.071E+00
			93.00		54.326E+00
			93.50		51.043E+00
			94.00		47.731E+00
			94.50		44.111E+00
			95.00		40.492E+00
			95.50		37.490E+00
			96.00		34.505E+00
			96.50		32.045E+00
			97.00		29.700E+00
			97.50		27.963E+00
			98.00		26.427E+00
			98.50		25.173E+00
			99.00		24.092E+00
			99.50		23.223E+00
			100.00		22.578E+00
			100.50		21.965E+00
			101.00		21.396E+00
			101.50		20.873E+00
			102.00		20.467E+00
			102.50		20.073E+00
			103.00		19.728E+00
			103.50		19.393E+00
			104.00		19.165E+00
			104.50		18.938E+00
			105.00		18.651E+00
			105.50		18.361E+00
			106.00		18.172E+00
			106.50		17.999E+00
			107.00		17.739E+00
			107.50		17.449E+00
			108.00		17.239E+00
			108.50		17.072E+00
			109.00		16.928E+00
			109.50		16.809E+00
			110.00		16.643E+00
			110.50		16.413E+00
			111.00		16.202E+00
			111.50		16.032E+00
			112.00		15.860E+00
			112.50		15.686E+00
			113.00		15.518E+00
			113.50		15.404E+00
			114.00		15.290E+00
			114.50		15.122E+00
			115.00		14.951E+00
			115.50		14.826E+00
			116.00		14.710E+00
			116.50		14.552E+00
			117.00		14.380E+00
			117.50		14.207E+00
			118.00		14.035E+00
			118.50		13.952E+00
			119.00		13.952E+00
			119.50		13.883E+00
			120.00		13.714E+00
			120.50		13.558E+00
			121.00		13.439E+00
			121.50		13.299E+00
			122.00		13.071E+00
			122.50		12.856E+00
			123.00		12.798E+00
			123.50		12.741E+00
			124.00		12.627E+00
			124.50		12.511E+00
			125.00		12.448E+00
			125.50		12.392E+00
			126.00		12.255E+00
			126.50		12.083E+00
		END_DATA
	END_SCAN  7
END_SCAN_DATA
