BEGIN_SCAN_DATA
	FORMAT=CC-Export V1.9                  
	FILE_CREATION_DATE=26-Jul-2022 10:32:39
	LAST_MODIFIED=26-Jul-2022 10:32:39
	BEGIN_SCAN  1
		TASK_NAME=tba PDD Profiles
		PROGRAM=WaterTankScans
		COMMENT=PDD + 5x X
		MEAS_DATE=08-Feb-2021 10:17:42
		LINAC=TRUEBEAMSN4791
		MODALITY=X
		ISOCENTER=1000.00
		INPLANE_AXIS=Y
		CROSSPLANE_AXIS=X
		DEPTH_AXIS=Depth
		INPLANE_AXIS_DIR=TARGET_GUN
		CROSSPLANE_AXIS_DIR=LEFT_RIGHT
		DEPTH_AXIS_DIR=UP_DOWN
		ENERGY=6.00
		NOMINAL_DMAX=15.00
		SSD=900.00
		SCD=450.00
		WEDGE_ANGLE=0.00
		FIELD_INPLANE=300.00
		FIELD_CROSSPLANE=300.00
		FIELD_TYPE=RECTANGULAR
		GANTRY=0.00
		GANTRY_UPRIGHT_POSITION=0
		GANTRY_ROTATION=CW
		COLL_ANGLE=0.00
		COLL_OFFSET_INPLANE=0.00
		COLL_OFFSET_CROSSPLANE=0.00
		SCAN_DEVICE=BeamScan
		SCAN_DEVICE_SETUP=BARA_LEFT_RIGHT
		ELECTROMETER=BeamScan
		RANGE_FIELD=LOW
		RANGE_REFERENCE=MEDIUM
		DETECTOR=THIMBLE_CHAMBER
		DETECTOR_SUBCODE=SEMIFLEX
		DETECTOR_RADIUS=2.40
		DETECTOR_NAME=PTW 31021 Semiflex 3D (1)
		DETECTOR_SN=142316
		DETECTOR_CALIBRATION=588000000.00
		DETECTOR_IS_CALIBRATED=1
		DETECTOR_REFERENCE=THIMBLE_CHAMBER
		DETECTOR_REFERENCE_SUBCODE=SEMIFLEX
		DETECTOR_REFERENCE_RADIUS=2.75
		DETECTOR_REFERENCE_NAME=PTW 31010 Semiflex (1)
		DETECTOR_REFERENCE_SN=â€”
		DETECTOR_REFERENCE_IS_CALIBRATED=0
		DETECTOR_REFERENCE_CALIBRATION=303000000.00
		DETECTOR_HV=400.0
		DETECTOR_REFERENCE_HV=400.0
		DETECTOR_ORIENTATION=HORIZONTAL
		FILTER=FF
		SCAN_SPEED_PROFILE=12.50
		SCAN_PROF_SPEED_DEP=DEPTH
		SCAN_SPEED_PDD=12.50
		SCAN_PDD_SPEED_DEP=ENERGY
		DETECTOR_TYPE=T31021
		REF_FIELD_DEPTH=100.00
		REF_FIELD_DEFINED=ISOCENTER
		REF_FIELD_INPLANE=100.00
		REF_FIELD_CROSSPLANE=100.00
		REF_SCAN_POSITIONS=-85.00;-84.00;-83.00;-82.00;-81.00;-80.00;-79.00;-78.00;-77.00;-76.00;-75.00;-74.00;-73.00;-72.00;-71.00;-70.00;-69.00;-68.00;-67.00;-66.00;-65.00;-64.00;-63.00;-62.00;-61.00;-60.00;-59.00;-58.00;-57.00;-56.00;-55.00;-54.00;-53.00;-52.00;-51.00;-50.00;-49.00;-48.00;-47.00;-46.00;-45.00;-44.00;-43.00;-42.00;-41.00;-40.00;-39.00;-38.00;-37.00;-36.00;-35.00;-34.00;-33.00;-32.00;-31.00;-30.00;-29.00;-28.00;-27.00;-26.00;-25.00;-24.00;-23.00;-22.00;-21.00;-20.00;-19.00;-18.00;-17.00;-16.00;-15.00;-14.00;-13.00;-12.00;-11.00;-10.00;-9.00;-8.00;-7.00;-6.00;-5.00;-4.00;-3.00;-2.00;-1.00;0.00;1.00;2.00;3.00;4.00;5.00;6.00;7.00;8.00;9.00;10.00;11.00;12.00;13.00;14.00;15.00;16.00;17.00;18.00;19.00;20.00;21.00;22.00;23.00;24.00;25.00;26.00;27.00;28.00;29.00;30.00;31.00;32.00;33.00;34.00;35.00;36.00;37.00;38.00;39.00;40.00;41.00;42.00;43.00;44.00;45.00;46.00;47.00;48.00;49.00;50.00;51.00;52.00;53.00;54.00;55.00;56.00;57.00;58.00;59.00;60.00;61.00;62.00;63.00;64.00;65.00;66.00;67.00;68.00;69.00;70.00;71.00;72.00;73.00;74.00;75.00;76.00;77.00;78.00;79.00;80.00;81.00;82.00;83.00;84.00;85.00;
		REF_OVERSCAN_FACTOR=1.00
		SCAN_CURVETYPE=CROSSPLANE_PROFILE
		SCAN_DEPTH=15.00
		SCAN_OFFAXIS_INPLANE=0.00
		SCAN_OFFAXIS_CROSSPLANE=0.00
		SCAN_ANGLE=0.00
		SCAN_DIAGONAL=NOT_DIAGONAL
		SCAN_DIRECTION=POSITIVE
		MEAS_MEDIUM=WATER
		MEAS_PRESET=MEAS_CONTINUOUS_REFERENCE_SCAN
		MEAS_TIME=0.080
		MEAS_UNIT=A.U.
		INCLINATION_ANGLE=0.00
		PRESSURE=1013.25
		TEMPERATURE=20.00
		NORM_TEMPERATURE=20.00
		CORRECTION_FACTOR=1.0000
		EXPECTED_MAX_DOSE_RATE=3.00
		EPOM_DEPTH_SHIFT=0.2
		EPOM_MODE=SHIFT_PROTOCOL
		CORRECTIONS=SMOOTHED_CORR;CAX_CORR;SYMMETRY_CORR;INTERPOLATED_CORR;
		BEGIN_DATA
			-170.00		62.750E-03
			-169.50		64.170E-03
			-169.00		65.590E-03
			-168.50		66.471E-03
			-168.00		67.352E-03
			-167.50		68.267E-03
			-167.00		69.183E-03
			-166.50		70.111E-03
			-166.00		71.040E-03
			-165.50		71.869E-03
			-165.00		72.698E-03
			-164.50		73.762E-03
			-164.00		74.827E-03
			-163.50		75.546E-03
			-163.00		76.264E-03
			-162.50		77.239E-03
			-162.00		78.215E-03
			-161.50		79.355E-03
			-161.00		80.495E-03
			-160.50		81.703E-03
			-160.00		82.912E-03
			-159.50		83.957E-03
			-159.00		85.002E-03
			-158.50		86.023E-03
			-158.00		87.045E-03
			-157.50		88.172E-03
			-157.00		89.299E-03
			-156.50		90.553E-03
			-156.00		91.807E-03
			-155.50		93.237E-03
			-155.00		94.667E-03
			-154.50		95.789E-03
			-154.00		96.910E-03
			-153.50		98.143E-03
			-153.00		99.376E-03
			-152.50		100.86E-03
			-152.00		102.35E-03
			-151.50		103.88E-03
			-151.00		105.41E-03
			-150.50		106.89E-03
			-150.00		108.37E-03
			-149.50		110.18E-03
			-149.00		112.00E-03
			-148.50		113.97E-03
			-148.00		115.94E-03
			-147.50		118.58E-03
			-147.00		121.23E-03
			-146.50		124.38E-03
			-146.00		127.53E-03
			-145.50		131.48E-03
			-145.00		135.43E-03
			-144.50		140.64E-03
			-144.00		145.86E-03
			-143.50		153.52E-03
			-143.00		161.19E-03
			-142.50		173.84E-03
			-142.00		186.48E-03
			-141.50		210.99E-03
			-141.00		235.49E-03
			-140.50		281.59E-03
			-140.00		327.70E-03
			-139.50		397.98E-03
			-139.00		468.26E-03
			-138.50		555.64E-03
			-138.00		643.03E-03
			-137.50		740.27E-03
			-137.00		837.51E-03
			-136.50		927.65E-03
			-136.00		1.0178E+00
			-135.50		1.0905E+00
			-135.00		1.1631E+00
			-134.50		1.2085E+00
			-134.00		1.2538E+00
			-133.50		1.2773E+00
			-133.00		1.3007E+00
			-132.50		1.3136E+00
			-132.00		1.3266E+00
			-131.50		1.3336E+00
			-131.00		1.3406E+00
			-130.50		1.3451E+00
			-130.00		1.3497E+00
			-129.50		1.3533E+00
			-129.00		1.3568E+00
			-128.50		1.3593E+00
			-128.00		1.3618E+00
			-127.50		1.3637E+00
			-127.00		1.3656E+00
			-126.50		1.3670E+00
			-126.00		1.3685E+00
			-125.50		1.3697E+00
			-125.00		1.3709E+00
			-124.50		1.3721E+00
			-124.00		1.3733E+00
			-123.50		1.3742E+00
			-123.00		1.3750E+00
			-122.50		1.3755E+00
			-122.00		1.3759E+00
			-121.50		1.3759E+00
			-121.00		1.3759E+00
			-120.50		1.3760E+00
			-120.00		1.3761E+00
			-119.50		1.3764E+00
			-119.00		1.3768E+00
			-118.50		1.3770E+00
			-118.00		1.3771E+00
			-117.50		1.3770E+00
			-117.00		1.3769E+00
			-116.50		1.3770E+00
			-116.00		1.3772E+00
			-115.50		1.3777E+00
			-115.00		1.3781E+00
			-114.50		1.3786E+00
			-114.00		1.3791E+00
			-113.50		1.3795E+00
			-113.00		1.3800E+00
			-112.50		1.3804E+00
			-112.00		1.3808E+00
			-111.50		1.3810E+00
			-111.00		1.3812E+00
			-110.50		1.3811E+00
			-110.00		1.3810E+00
			-109.50		1.3809E+00
			-109.00		1.3807E+00
			-108.50		1.3807E+00
			-108.00		1.3807E+00
			-107.50		1.3808E+00
			-107.00		1.3809E+00
			-106.50		1.3810E+00
			-106.00		1.3812E+00
			-105.50		1.3816E+00
			-105.00		1.3821E+00
			-104.50		1.3823E+00
			-104.00		1.3825E+00
			-103.50		1.3826E+00
			-103.00		1.3826E+00
			-102.50		1.3827E+00
			-102.00		1.3828E+00
			-101.50		1.3831E+00
			-101.00		1.3835E+00
			-100.50		1.3837E+00
			-100.00		1.3840E+00
			-99.50		1.3841E+00
			-99.00		1.3842E+00
			-98.50		1.3844E+00
			-98.00		1.3846E+00
			-97.50		1.3847E+00
			-97.00		1.3848E+00
			-96.50		1.3846E+00
			-96.00		1.3844E+00
			-95.50		1.3841E+00
			-95.00		1.3837E+00
			-94.50		1.3832E+00
			-94.00		1.3828E+00
			-93.50		1.3823E+00
			-93.00		1.3819E+00
			-92.50		1.3818E+00
			-92.00		1.3817E+00
			-91.50		1.3818E+00
			-91.00		1.3819E+00
			-90.50		1.3819E+00
			-90.00		1.3819E+00
			-89.50		1.3817E+00
			-89.00		1.3816E+00
			-88.50		1.3814E+00
			-88.00		1.3813E+00
			-87.50		1.3814E+00
			-87.00		1.3816E+00
			-86.50		1.3817E+00
			-86.00		1.3819E+00
			-85.50		1.3821E+00
			-85.00		1.3822E+00
			-84.50		1.3823E+00
			-84.00		1.3825E+00
			-83.50		1.3826E+00
			-83.00		1.3827E+00
			-82.50		1.3828E+00
			-82.00		1.3829E+00
			-81.50		1.3829E+00
			-81.00		1.3829E+00
			-80.50		1.3829E+00
			-80.00		1.3829E+00
			-79.50		1.3828E+00
			-79.00		1.3826E+00
			-78.50		1.3823E+00
			-78.00		1.3821E+00
			-77.50		1.3819E+00
			-77.00		1.3817E+00
			-76.50		1.3816E+00
			-76.00		1.3816E+00
			-75.50		1.3814E+00
			-75.00		1.3813E+00
			-74.50		1.3811E+00
			-74.00		1.3809E+00
			-73.50		1.3806E+00
			-73.00		1.3803E+00
			-72.50		1.3802E+00
			-72.00		1.3800E+00
			-71.50		1.3801E+00
			-71.00		1.3802E+00
			-70.50		1.3802E+00
			-70.00		1.3803E+00
			-69.50		1.3800E+00
			-69.00		1.3798E+00
			-68.50		1.3793E+00
			-68.00		1.3789E+00
			-67.50		1.3787E+00
			-67.00		1.3785E+00
			-66.50		1.3786E+00
			-66.00		1.3788E+00
			-65.50		1.3789E+00
			-65.00		1.3790E+00
			-64.50		1.3786E+00
			-64.00		1.3781E+00
			-63.50		1.3778E+00
			-63.00		1.3774E+00
			-62.50		1.3774E+00
			-62.00		1.3774E+00
			-61.50		1.3772E+00
			-61.00		1.3769E+00
			-60.50		1.3764E+00
			-60.00		1.3759E+00
			-59.50		1.3756E+00
			-59.00		1.3752E+00
			-58.50		1.3753E+00
			-58.00		1.3753E+00
			-57.50		1.3753E+00
			-57.00		1.3752E+00
			-56.50		1.3751E+00
			-56.00		1.3749E+00
			-55.50		1.3747E+00
			-55.00		1.3745E+00
			-54.50		1.3742E+00
			-54.00		1.3740E+00
			-53.50		1.3736E+00
			-53.00		1.3733E+00
			-52.50		1.3728E+00
			-52.00		1.3722E+00
			-51.50		1.3718E+00
			-51.00		1.3714E+00
			-50.50		1.3712E+00
			-50.00		1.3710E+00
			-49.50		1.3709E+00
			-49.00		1.3707E+00
			-48.50		1.3705E+00
			-48.00		1.3702E+00
			-47.50		1.3700E+00
			-47.00		1.3697E+00
			-46.50		1.3694E+00
			-46.00		1.3692E+00
			-45.50		1.3688E+00
			-45.00		1.3684E+00
			-44.50		1.3680E+00
			-44.00		1.3677E+00
			-43.50		1.3673E+00
			-43.00		1.3670E+00
			-42.50		1.3666E+00
			-42.00		1.3663E+00
			-41.50		1.3658E+00
			-41.00		1.3654E+00
			-40.50		1.3651E+00
			-40.00		1.3648E+00
			-39.50		1.3643E+00
			-39.00		1.3638E+00
			-38.50		1.3630E+00
			-38.00		1.3623E+00
			-37.50		1.3616E+00
			-37.00		1.3610E+00
			-36.50		1.3604E+00
			-36.00		1.3598E+00
			-35.50		1.3590E+00
			-35.00		1.3581E+00
			-34.50		1.3571E+00
			-34.00		1.3561E+00
			-33.50		1.3554E+00
			-33.00		1.3546E+00
			-32.50		1.3542E+00
			-32.00		1.3539E+00
			-31.50		1.3539E+00
			-31.00		1.3539E+00
			-30.50		1.3539E+00
			-30.00		1.3539E+00
			-29.50		1.3537E+00
			-29.00		1.3535E+00
			-28.50		1.3530E+00
			-28.00		1.3526E+00
			-27.50		1.3525E+00
			-27.00		1.3524E+00
			-26.50		1.3524E+00
			-26.00		1.3524E+00
			-25.50		1.3522E+00
			-25.00		1.3520E+00
			-24.50		1.3518E+00
			-24.00		1.3516E+00
			-23.50		1.3514E+00
			-23.00		1.3512E+00
			-22.50		1.3511E+00
			-22.00		1.3510E+00
			-21.50		1.3507E+00
			-21.00		1.3505E+00
			-20.50		1.3500E+00
			-20.00		1.3496E+00
			-19.50		1.3489E+00
			-19.00		1.3482E+00
			-18.50		1.3477E+00
			-18.00		1.3473E+00
			-17.50		1.3475E+00
			-17.00		1.3476E+00
			-16.50		1.3478E+00
			-16.00		1.3481E+00
			-15.50		1.3478E+00
			-15.00		1.3476E+00
			-14.50		1.3471E+00
			-14.00		1.3467E+00
			-13.50		1.3462E+00
			-13.00		1.3457E+00
			-12.50		1.3453E+00
			-12.00		1.3449E+00
			-11.50		1.3447E+00
			-11.00		1.3444E+00
			-10.50		1.3441E+00
			-10.00		1.3438E+00
			-9.50		1.3433E+00
			-9.00		1.3428E+00
			-8.50		1.3420E+00
			-8.00		1.3412E+00
			-7.50		1.3403E+00
			-7.00		1.3393E+00
			-6.50		1.3387E+00
			-6.00		1.3381E+00
			-5.50		1.3381E+00
			-5.00		1.3380E+00
			-4.50		1.3384E+00
			-4.00		1.3387E+00
			-3.50		1.3390E+00
			-3.00		1.3392E+00
			-2.50		1.3391E+00
			-2.00		1.3391E+00
			-1.50		1.3388E+00
			-1.00		1.3384E+00
			-0.50		1.3382E+00
			0.00		1.3380E+00
			0.50		1.3382E+00
			1.00		1.3384E+00
			1.50		1.3388E+00
			2.00		1.3391E+00
			2.50		1.3391E+00
			3.00		1.3392E+00
			3.50		1.3390E+00
			4.00		1.3387E+00
			4.50		1.3384E+00
			5.00		1.3380E+00
			5.50		1.3381E+00
			6.00		1.3381E+00
			6.50		1.3387E+00
			7.00		1.3393E+00
			7.50		1.3403E+00
			8.00		1.3412E+00
			8.50		1.3420E+00
			9.00		1.3428E+00
			9.50		1.3433E+00
			10.00		1.3438E+00
			10.50		1.3441E+00
			11.00		1.3444E+00
			11.50		1.3447E+00
			12.00		1.3449E+00
			12.50		1.3453E+00
			13.00		1.3457E+00
			13.50		1.3462E+00
			14.00		1.3467E+00
			14.50		1.3471E+00
			15.00		1.3476E+00
			15.50		1.3478E+00
			16.00		1.3481E+00
			16.50		1.3478E+00
			17.00		1.3476E+00
			17.50		1.3475E+00
			18.00		1.3473E+00
			18.50		1.3477E+00
			19.00		1.3482E+00
			19.50		1.3489E+00
			20.00		1.3496E+00
			20.50		1.3500E+00
			21.00		1.3505E+00
			21.50		1.3507E+00
			22.00		1.3510E+00
			22.50		1.3511E+00
			23.00		1.3512E+00
			23.50		1.3514E+00
			24.00		1.3516E+00
			24.50		1.3518E+00
			25.00		1.3520E+00
			25.50		1.3522E+00
			26.00		1.3524E+00
			26.50		1.3524E+00
			27.00		1.3524E+00
			27.50		1.3525E+00
			28.00		1.3526E+00
			28.50		1.3530E+00
			29.00		1.3535E+00
			29.50		1.3537E+00
			30.00		1.3539E+00
			30.50		1.3539E+00
			31.00		1.3539E+00
			31.50		1.3539E+00
			32.00		1.3539E+00
			32.50		1.3542E+00
			33.00		1.3546E+00
			33.50		1.3554E+00
			34.00		1.3561E+00
			34.50		1.3571E+00
			35.00		1.3581E+00
			35.50		1.3590E+00
			36.00		1.3598E+00
			36.50		1.3604E+00
			37.00		1.3610E+00
			37.50		1.3616E+00
			38.00		1.3623E+00
			38.50		1.3630E+00
			39.00		1.3638E+00
			39.50		1.3643E+00
			40.00		1.3648E+00
			40.50		1.3651E+00
			41.00		1.3654E+00
			41.50		1.3658E+00
			42.00		1.3663E+00
			42.50		1.3666E+00
			43.00		1.3670E+00
			43.50		1.3673E+00
			44.00		1.3677E+00
			44.50		1.3680E+00
			45.00		1.3684E+00
			45.50		1.3688E+00
			46.00		1.3692E+00
			46.50		1.3694E+00
			47.00		1.3697E+00
			47.50		1.3700E+00
			48.00		1.3702E+00
			48.50		1.3705E+00
			49.00		1.3707E+00
			49.50		1.3709E+00
			50.00		1.3710E+00
			50.50		1.3712E+00
			51.00		1.3714E+00
			51.50		1.3718E+00
			52.00		1.3722E+00
			52.50		1.3728E+00
			53.00		1.3733E+00
			53.50		1.3736E+00
			54.00		1.3740E+00
			54.50		1.3742E+00
			55.00		1.3745E+00
			55.50		1.3747E+00
			56.00		1.3749E+00
			56.50		1.3751E+00
			57.00		1.3752E+00
			57.50		1.3753E+00
			58.00		1.3753E+00
			58.50		1.3753E+00
			59.00		1.3752E+00
			59.50		1.3756E+00
			60.00		1.3759E+00
			60.50		1.3764E+00
			61.00		1.3769E+00
			61.50		1.3772E+00
			62.00		1.3774E+00
			62.50		1.3774E+00
			63.00		1.3774E+00
			63.50		1.3778E+00
			64.00		1.3781E+00
			64.50		1.3786E+00
			65.00		1.3790E+00
			65.50		1.3789E+00
			66.00		1.3788E+00
			66.50		1.3786E+00
			67.00		1.3785E+00
			67.50		1.3787E+00
			68.00		1.3789E+00
			68.50		1.3793E+00
			69.00		1.3798E+00
			69.50		1.3800E+00
			70.00		1.3803E+00
			70.50		1.3802E+00
			71.00		1.3802E+00
			71.50		1.3801E+00
			72.00		1.3800E+00
			72.50		1.3802E+00
			73.00		1.3803E+00
			73.50		1.3806E+00
			74.00		1.3809E+00
			74.50		1.3811E+00
			75.00		1.3813E+00
			75.50		1.3814E+00
			76.00		1.3816E+00
			76.50		1.3816E+00
			77.00		1.3817E+00
			77.50		1.3819E+00
			78.00		1.3821E+00
			78.50		1.3823E+00
			79.00		1.3826E+00
			79.50		1.3828E+00
			80.00		1.3829E+00
			80.50		1.3829E+00
			81.00		1.3829E+00
			81.50		1.3829E+00
			82.00		1.3829E+00
			82.50		1.3828E+00
			83.00		1.3827E+00
			83.50		1.3826E+00
			84.00		1.3825E+00
			84.50		1.3823E+00
			85.00		1.3822E+00
			85.50		1.3821E+00
			86.00		1.3819E+00
			86.50		1.3817E+00
			87.00		1.3816E+00
			87.50		1.3814E+00
			88.00		1.3813E+00
			88.50		1.3814E+00
			89.00		1.3816E+00
			89.50		1.3817E+00
			90.00		1.3819E+00
			90.50		1.3819E+00
			91.00		1.3819E+00
			91.50		1.3818E+00
			92.00		1.3817E+00
			92.50		1.3818E+00
			93.00		1.3819E+00
			93.50		1.3823E+00
			94.00		1.3828E+00
			94.50		1.3832E+00
			95.00		1.3837E+00
			95.50		1.3841E+00
			96.00		1.3844E+00
			96.50		1.3846E+00
			97.00		1.3848E+00
			97.50		1.3847E+00
			98.00		1.3846E+00
			98.50		1.3844E+00
			99.00		1.3842E+00
			99.50		1.3841E+00
			100.00		1.3840E+00
			100.50		1.3837E+00
			101.00		1.3835E+00
			101.50		1.3831E+00
			102.00		1.3828E+00
			102.50		1.3827E+00
			103.00		1.3826E+00
			103.50		1.3826E+00
			104.00		1.3825E+00
			104.50		1.3823E+00
			105.00		1.3821E+00
			105.50		1.3816E+00
			106.00		1.3812E+00
			106.50		1.3810E+00
			107.00		1.3809E+00
			107.50		1.3808E+00
			108.00		1.3807E+00
			108.50		1.3807E+00
			109.00		1.3807E+00
			109.50		1.3809E+00
			110.00		1.3810E+00
			110.50		1.3811E+00
			111.00		1.3812E+00
			111.50		1.3810E+00
			112.00		1.3808E+00
			112.50		1.3804E+00
			113.00		1.3800E+00
			113.50		1.3795E+00
			114.00		1.3791E+00
			114.50		1.3786E+00
			115.00		1.3781E+00
			115.50		1.3777E+00
			116.00		1.3772E+00
			116.50		1.3770E+00
			117.00		1.3769E+00
			117.50		1.3770E+00
			118.00		1.3771E+00
			118.50		1.3770E+00
			119.00		1.3768E+00
			119.50		1.3764E+00
			120.00		1.3761E+00
			120.50		1.3760E+00
			121.00		1.3759E+00
			121.50		1.3759E+00
			122.00		1.3759E+00
			122.50		1.3755E+00
			123.00		1.3750E+00
			123.50		1.3742E+00
			124.00		1.3733E+00
			124.50		1.3721E+00
			125.00		1.3709E+00
			125.50		1.3697E+00
			126.00		1.3685E+00
			126.50		1.3670E+00
			127.00		1.3656E+00
			127.50		1.3637E+00
			128.00		1.3618E+00
			128.50		1.3593E+00
			129.00		1.3568E+00
			129.50		1.3533E+00
			130.00		1.3497E+00
			130.50		1.3451E+00
			131.00		1.3406E+00
			131.50		1.3336E+00
			132.00		1.3266E+00
			132.50		1.3136E+00
			133.00		1.3007E+00
			133.50		1.2773E+00
			134.00		1.2538E+00
			134.50		1.2085E+00
			135.00		1.1631E+00
			135.50		1.0905E+00
			136.00		1.0178E+00
			136.50		927.65E-03
			137.00		837.51E-03
			137.50		740.27E-03
			138.00		643.03E-03
			138.50		555.64E-03
			139.00		468.26E-03
			139.50		397.98E-03
			140.00		327.70E-03
			140.50		281.59E-03
			141.00		235.49E-03
			141.50		210.99E-03
			142.00		186.48E-03
			142.50		173.84E-03
			143.00		161.19E-03
			143.50		153.52E-03
			144.00		145.86E-03
			144.50		140.64E-03
			145.00		135.43E-03
			145.50		131.48E-03
			146.00		127.53E-03
			146.50		124.38E-03
			147.00		121.23E-03
			147.50		118.58E-03
			148.00		115.94E-03
			148.50		113.97E-03
			149.00		112.00E-03
			149.50		110.18E-03
			150.00		108.37E-03
			150.50		106.89E-03
			151.00		105.41E-03
			151.50		103.88E-03
			152.00		102.35E-03
			152.50		100.86E-03
			153.00		99.376E-03
			153.50		98.143E-03
			154.00		96.910E-03
			154.50		95.789E-03
			155.00		94.667E-03
			155.50		93.237E-03
			156.00		91.807E-03
			156.50		90.553E-03
			157.00		89.299E-03
			157.50		88.172E-03
			158.00		87.045E-03
			158.50		86.023E-03
			159.00		85.002E-03
			159.50		83.957E-03
			160.00		82.912E-03
			160.50		81.703E-03
			161.00		80.495E-03
			161.50		79.355E-03
			162.00		78.215E-03
			162.50		77.239E-03
			163.00		76.264E-03
			163.50		75.546E-03
			164.00		74.827E-03
			164.50		73.762E-03
			165.00		72.698E-03
			165.50		71.869E-03
			166.00		71.040E-03
			166.50		70.111E-03
			167.00		69.183E-03
			167.50		68.267E-03
			168.00		67.352E-03
			168.50		66.471E-03
			169.00		65.590E-03
			169.50		64.170E-03
			170.00		62.750E-03
		END_DATA
	END_SCAN  1
	BEGIN_SCAN  2
		TASK_NAME=tba PDD Profiles
		PROGRAM=WaterTankScans
		COMMENT=PDD + 5x X
		MEAS_DATE=08-Feb-2021 10:18:18
		LINAC=TRUEBEAMSN4791
		MODALITY=X
		ISOCENTER=1000.00
		INPLANE_AXIS=Y
		CROSSPLANE_AXIS=X
		DEPTH_AXIS=Depth
		INPLANE_AXIS_DIR=TARGET_GUN
		CROSSPLANE_AXIS_DIR=LEFT_RIGHT
		DEPTH_AXIS_DIR=UP_DOWN
		ENERGY=6.00
		NOMINAL_DMAX=15.00
		SSD=900.00
		SCD=450.00
		WEDGE_ANGLE=0.00
		FIELD_INPLANE=300.00
		FIELD_CROSSPLANE=300.00
		FIELD_TYPE=RECTANGULAR
		GANTRY=0.00
		GANTRY_UPRIGHT_POSITION=0
		GANTRY_ROTATION=CW
		COLL_ANGLE=0.00
		COLL_OFFSET_INPLANE=0.00
		COLL_OFFSET_CROSSPLANE=0.00
		SCAN_DEVICE=BeamScan
		SCAN_DEVICE_SETUP=BARA_LEFT_RIGHT
		ELECTROMETER=BeamScan
		RANGE_FIELD=LOW
		RANGE_REFERENCE=MEDIUM
		DETECTOR=THIMBLE_CHAMBER
		DETECTOR_SUBCODE=SEMIFLEX
		DETECTOR_RADIUS=2.40
		DETECTOR_NAME=PTW 31021 Semiflex 3D (1)
		DETECTOR_SN=142316
		DETECTOR_CALIBRATION=588000000.00
		DETECTOR_IS_CALIBRATED=1
		DETECTOR_REFERENCE=THIMBLE_CHAMBER
		DETECTOR_REFERENCE_SUBCODE=SEMIFLEX
		DETECTOR_REFERENCE_RADIUS=2.75
		DETECTOR_REFERENCE_NAME=PTW 31010 Semiflex (1)
		DETECTOR_REFERENCE_SN=â€”
		DETECTOR_REFERENCE_IS_CALIBRATED=0
		DETECTOR_REFERENCE_CALIBRATION=303000000.00
		DETECTOR_HV=400.0
		DETECTOR_REFERENCE_HV=400.0
		DETECTOR_ORIENTATION=HORIZONTAL
		FILTER=FF
		SCAN_SPEED_PROFILE=12.50
		SCAN_PROF_SPEED_DEP=DEPTH
		SCAN_SPEED_PDD=12.50
		SCAN_PDD_SPEED_DEP=ENERGY
		DETECTOR_TYPE=T31021
		REF_FIELD_DEPTH=100.00
		REF_FIELD_DEFINED=ISOCENTER
		REF_FIELD_INPLANE=100.00
		REF_FIELD_CROSSPLANE=100.00
		REF_SCAN_POSITIONS=-85.00;-84.00;-83.00;-82.00;-81.00;-80.00;-79.00;-78.00;-77.00;-76.00;-75.00;-74.00;-73.00;-72.00;-71.00;-70.00;-69.00;-68.00;-67.00;-66.00;-65.00;-64.00;-63.00;-62.00;-61.00;-60.00;-59.00;-58.00;-57.00;-56.00;-55.00;-54.00;-53.00;-52.00;-51.00;-50.00;-49.00;-48.00;-47.00;-46.00;-45.00;-44.00;-43.00;-42.00;-41.00;-40.00;-39.00;-38.00;-37.00;-36.00;-35.00;-34.00;-33.00;-32.00;-31.00;-30.00;-29.00;-28.00;-27.00;-26.00;-25.00;-24.00;-23.00;-22.00;-21.00;-20.00;-19.00;-18.00;-17.00;-16.00;-15.00;-14.00;-13.00;-12.00;-11.00;-10.00;-9.00;-8.00;-7.00;-6.00;-5.00;-4.00;-3.00;-2.00;-1.00;0.00;1.00;2.00;3.00;4.00;5.00;6.00;7.00;8.00;9.00;10.00;11.00;12.00;13.00;14.00;15.00;16.00;17.00;18.00;19.00;20.00;21.00;22.00;23.00;24.00;25.00;26.00;27.00;28.00;29.00;30.00;31.00;32.00;33.00;34.00;35.00;36.00;37.00;38.00;39.00;40.00;41.00;42.00;43.00;44.00;45.00;46.00;47.00;48.00;49.00;50.00;51.00;52.00;53.00;54.00;55.00;56.00;57.00;58.00;59.00;60.00;61.00;62.00;63.00;64.00;65.00;66.00;67.00;68.00;69.00;70.00;71.00;72.00;73.00;74.00;75.00;76.00;77.00;78.00;79.00;80.00;81.00;82.00;83.00;84.00;85.00;
		REF_OVERSCAN_FACTOR=1.00
		SCAN_CURVETYPE=CROSSPLANE_PROFILE
		SCAN_DEPTH=50.00
		SCAN_OFFAXIS_INPLANE=0.00
		SCAN_OFFAXIS_CROSSPLANE=0.00
		SCAN_ANGLE=0.00
		SCAN_DIAGONAL=NOT_DIAGONAL
		SCAN_DIRECTION=NEGATIVE
		MEAS_MEDIUM=WATER
		MEAS_PRESET=MEAS_CONTINUOUS_REFERENCE_SCAN
		MEAS_TIME=0.080
		MEAS_UNIT=A.U.
		INCLINATION_ANGLE=0.00
		PRESSURE=1013.25
		TEMPERATURE=20.00
		NORM_TEMPERATURE=20.00
		CORRECTION_FACTOR=1.0000
		EXPECTED_MAX_DOSE_RATE=3.00
		EPOM_DEPTH_SHIFT=0.2
		EPOM_MODE=SHIFT_PROTOCOL
		CORRECTIONS=SMOOTHED_CORR;CAX_CORR;SYMMETRY_CORR;INTERPOLATED_CORR;
		BEGIN_DATA
			-176.00		74.013E-03
			-175.50		74.399E-03
			-175.00		74.785E-03
			-174.50		75.623E-03
			-174.00		76.462E-03
			-173.50		77.590E-03
			-173.00		78.718E-03
			-172.50		79.527E-03
			-172.00		80.336E-03
			-171.50		81.331E-03
			-171.00		82.327E-03
			-170.50		83.281E-03
			-170.00		84.234E-03
			-169.50		85.338E-03
			-169.00		86.442E-03
			-168.50		87.709E-03
			-168.00		88.975E-03
			-167.50		90.091E-03
			-167.00		91.208E-03
			-166.50		92.466E-03
			-166.00		93.724E-03
			-165.50		95.031E-03
			-165.00		96.338E-03
			-164.50		97.312E-03
			-164.00		98.287E-03
			-163.50		99.564E-03
			-163.00		100.84E-03
			-162.50		102.23E-03
			-162.00		103.61E-03
			-161.50		105.14E-03
			-161.00		106.67E-03
			-160.50		108.33E-03
			-160.00		109.98E-03
			-159.50		111.52E-03
			-159.00		113.05E-03
			-158.50		114.67E-03
			-158.00		116.28E-03
			-157.50		117.85E-03
			-157.00		119.43E-03
			-156.50		121.29E-03
			-156.00		123.16E-03
			-155.50		124.85E-03
			-155.00		126.54E-03
			-154.50		128.98E-03
			-154.00		131.42E-03
			-153.50		133.77E-03
			-153.00		136.13E-03
			-152.50		139.37E-03
			-152.00		142.61E-03
			-151.50		146.22E-03
			-151.00		149.83E-03
			-150.50		154.04E-03
			-150.00		158.25E-03
			-149.50		163.96E-03
			-149.00		169.67E-03
			-148.50		177.53E-03
			-148.00		185.40E-03
			-147.50		198.62E-03
			-147.00		211.84E-03
			-146.50		235.02E-03
			-146.00		258.19E-03
			-145.50		299.52E-03
			-145.00		340.84E-03
			-144.50		400.08E-03
			-144.00		459.31E-03
			-143.50		529.09E-03
			-143.00		598.88E-03
			-142.50		672.97E-03
			-142.00		747.06E-03
			-141.50		814.09E-03
			-141.00		881.11E-03
			-140.50		932.18E-03
			-140.00		983.26E-03
			-139.50		1.0152E+00
			-139.00		1.0472E+00
			-138.50		1.0655E+00
			-138.00		1.0838E+00
			-137.50		1.0940E+00
			-137.00		1.1042E+00
			-136.50		1.1108E+00
			-136.00		1.1174E+00
			-135.50		1.1223E+00
			-135.00		1.1272E+00
			-134.50		1.1312E+00
			-134.00		1.1351E+00
			-133.50		1.1382E+00
			-133.00		1.1414E+00
			-132.50		1.1435E+00
			-132.00		1.1455E+00
			-131.50		1.1472E+00
			-131.00		1.1488E+00
			-130.50		1.1506E+00
			-130.00		1.1524E+00
			-129.50		1.1544E+00
			-129.00		1.1564E+00
			-128.50		1.1581E+00
			-128.00		1.1597E+00
			-127.50		1.1609E+00
			-127.00		1.1620E+00
			-126.50		1.1630E+00
			-126.00		1.1641E+00
			-125.50		1.1650E+00
			-125.00		1.1658E+00
			-124.50		1.1665E+00
			-124.00		1.1672E+00
			-123.50		1.1679E+00
			-123.00		1.1686E+00
			-122.50		1.1695E+00
			-122.00		1.1703E+00
			-121.50		1.1711E+00
			-121.00		1.1718E+00
			-120.50		1.1723E+00
			-120.00		1.1729E+00
			-119.50		1.1734E+00
			-119.00		1.1739E+00
			-118.50		1.1744E+00
			-118.00		1.1748E+00
			-117.50		1.1754E+00
			-117.00		1.1760E+00
			-116.50		1.1766E+00
			-116.00		1.1772E+00
			-115.50		1.1777E+00
			-115.00		1.1783E+00
			-114.50		1.1787E+00
			-114.00		1.1791E+00
			-113.50		1.1795E+00
			-113.00		1.1799E+00
			-112.50		1.1806E+00
			-112.00		1.1813E+00
			-111.50		1.1819E+00
			-111.00		1.1825E+00
			-110.50		1.1830E+00
			-110.00		1.1834E+00
			-109.50		1.1838E+00
			-109.00		1.1842E+00
			-108.50		1.1845E+00
			-108.00		1.1848E+00
			-107.50		1.1850E+00
			-107.00		1.1852E+00
			-106.50		1.1855E+00
			-106.00		1.1858E+00
			-105.50		1.1862E+00
			-105.00		1.1867E+00
			-104.50		1.1873E+00
			-104.00		1.1878E+00
			-103.50		1.1881E+00
			-103.00		1.1883E+00
			-102.50		1.1884E+00
			-102.00		1.1885E+00
			-101.50		1.1887E+00
			-101.00		1.1889E+00
			-100.50		1.1891E+00
			-100.00		1.1893E+00
			-99.50		1.1895E+00
			-99.00		1.1897E+00
			-98.50		1.1901E+00
			-98.00		1.1904E+00
			-97.50		1.1908E+00
			-97.00		1.1911E+00
			-96.50		1.1913E+00
			-96.00		1.1916E+00
			-95.50		1.1916E+00
			-95.00		1.1916E+00
			-94.50		1.1916E+00
			-94.00		1.1915E+00
			-93.50		1.1916E+00
			-93.00		1.1916E+00
			-92.50		1.1916E+00
			-92.00		1.1916E+00
			-91.50		1.1916E+00
			-91.00		1.1915E+00
			-90.50		1.1916E+00
			-90.00		1.1918E+00
			-89.50		1.1923E+00
			-89.00		1.1927E+00
			-88.50		1.1928E+00
			-88.00		1.1930E+00
			-87.50		1.1931E+00
			-87.00		1.1932E+00
			-86.50		1.1933E+00
			-86.00		1.1934E+00
			-85.50		1.1936E+00
			-85.00		1.1938E+00
			-84.50		1.1939E+00
			-84.00		1.1941E+00
			-83.50		1.1940E+00
			-83.00		1.1939E+00
			-82.50		1.1937E+00
			-82.00		1.1935E+00
			-81.50		1.1934E+00
			-81.00		1.1933E+00
			-80.50		1.1932E+00
			-80.00		1.1932E+00
			-79.50		1.1930E+00
			-79.00		1.1927E+00
			-78.50		1.1925E+00
			-78.00		1.1924E+00
			-77.50		1.1925E+00
			-77.00		1.1925E+00
			-76.50		1.1928E+00
			-76.00		1.1931E+00
			-75.50		1.1935E+00
			-75.00		1.1939E+00
			-74.50		1.1942E+00
			-74.00		1.1945E+00
			-73.50		1.1947E+00
			-73.00		1.1949E+00
			-72.50		1.1951E+00
			-72.00		1.1953E+00
			-71.50		1.1953E+00
			-71.00		1.1953E+00
			-70.50		1.1952E+00
			-70.00		1.1950E+00
			-69.50		1.1948E+00
			-69.00		1.1946E+00
			-68.50		1.1946E+00
			-68.00		1.1945E+00
			-67.50		1.1943E+00
			-67.00		1.1941E+00
			-66.50		1.1939E+00
			-66.00		1.1937E+00
			-65.50		1.1936E+00
			-65.00		1.1935E+00
			-64.50		1.1935E+00
			-64.00		1.1935E+00
			-63.50		1.1935E+00
			-63.00		1.1935E+00
			-62.50		1.1936E+00
			-62.00		1.1937E+00
			-61.50		1.1937E+00
			-61.00		1.1937E+00
			-60.50		1.1934E+00
			-60.00		1.1932E+00
			-59.50		1.1928E+00
			-59.00		1.1925E+00
			-58.50		1.1923E+00
			-58.00		1.1920E+00
			-57.50		1.1920E+00
			-57.00		1.1920E+00
			-56.50		1.1921E+00
			-56.00		1.1922E+00
			-55.50		1.1923E+00
			-55.00		1.1924E+00
			-54.50		1.1923E+00
			-54.00		1.1923E+00
			-53.50		1.1922E+00
			-53.00		1.1921E+00
			-52.50		1.1919E+00
			-52.00		1.1917E+00
			-51.50		1.1914E+00
			-51.00		1.1911E+00
			-50.50		1.1909E+00
			-50.00		1.1906E+00
			-49.50		1.1906E+00
			-49.00		1.1905E+00
			-48.50		1.1908E+00
			-48.00		1.1910E+00
			-47.50		1.1912E+00
			-47.00		1.1915E+00
			-46.50		1.1912E+00
			-46.00		1.1909E+00
			-45.50		1.1904E+00
			-45.00		1.1898E+00
			-44.50		1.1894E+00
			-44.00		1.1889E+00
			-43.50		1.1885E+00
			-43.00		1.1881E+00
			-42.50		1.1877E+00
			-42.00		1.1874E+00
			-41.50		1.1869E+00
			-41.00		1.1865E+00
			-40.50		1.1858E+00
			-40.00		1.1851E+00
			-39.50		1.1845E+00
			-39.00		1.1839E+00
			-38.50		1.1836E+00
			-38.00		1.1832E+00
			-37.50		1.1830E+00
			-37.00		1.1827E+00
			-36.50		1.1824E+00
			-36.00		1.1820E+00
			-35.50		1.1815E+00
			-35.00		1.1809E+00
			-34.50		1.1805E+00
			-34.00		1.1802E+00
			-33.50		1.1799E+00
			-33.00		1.1797E+00
			-32.50		1.1796E+00
			-32.00		1.1795E+00
			-31.50		1.1794E+00
			-31.00		1.1793E+00
			-30.50		1.1791E+00
			-30.00		1.1790E+00
			-29.50		1.1786E+00
			-29.00		1.1781E+00
			-28.50		1.1776E+00
			-28.00		1.1770E+00
			-27.50		1.1769E+00
			-27.00		1.1767E+00
			-26.50		1.1769E+00
			-26.00		1.1772E+00
			-25.50		1.1775E+00
			-25.00		1.1779E+00
			-24.50		1.1781E+00
			-24.00		1.1784E+00
			-23.50		1.1783E+00
			-23.00		1.1783E+00
			-22.50		1.1781E+00
			-22.00		1.1780E+00
			-21.50		1.1779E+00
			-21.00		1.1779E+00
			-20.50		1.1777E+00
			-20.00		1.1775E+00
			-19.50		1.1772E+00
			-19.00		1.1769E+00
			-18.50		1.1767E+00
			-18.00		1.1765E+00
			-17.50		1.1764E+00
			-17.00		1.1763E+00
			-16.50		1.1761E+00
			-16.00		1.1759E+00
			-15.50		1.1757E+00
			-15.00		1.1754E+00
			-14.50		1.1750E+00
			-14.00		1.1746E+00
			-13.50		1.1740E+00
			-13.00		1.1734E+00
			-12.50		1.1729E+00
			-12.00		1.1723E+00
			-11.50		1.1720E+00
			-11.00		1.1717E+00
			-10.50		1.1716E+00
			-10.00		1.1716E+00
			-9.50		1.1715E+00
			-9.00		1.1714E+00
			-8.50		1.1710E+00
			-8.00		1.1707E+00
			-7.50		1.1702E+00
			-7.00		1.1697E+00
			-6.50		1.1694E+00
			-6.00		1.1691E+00
			-5.50		1.1691E+00
			-5.00		1.1691E+00
			-4.50		1.1690E+00
			-4.00		1.1689E+00
			-3.50		1.1686E+00
			-3.00		1.1683E+00
			-2.50		1.1681E+00
			-2.00		1.1678E+00
			-1.50		1.1676E+00
			-1.00		1.1674E+00
			-0.50		1.1672E+00
			0.00		1.1671E+00
			0.50		1.1672E+00
			1.00		1.1674E+00
			1.50		1.1676E+00
			2.00		1.1678E+00
			2.50		1.1681E+00
			3.00		1.1683E+00
			3.50		1.1686E+00
			4.00		1.1689E+00
			4.50		1.1690E+00
			5.00		1.1691E+00
			5.50		1.1691E+00
			6.00		1.1691E+00
			6.50		1.1694E+00
			7.00		1.1697E+00
			7.50		1.1702E+00
			8.00		1.1707E+00
			8.50		1.1710E+00
			9.00		1.1714E+00
			9.50		1.1715E+00
			10.00		1.1716E+00
			10.50		1.1716E+00
			11.00		1.1717E+00
			11.50		1.1720E+00
			12.00		1.1723E+00
			12.50		1.1729E+00
			13.00		1.1734E+00
			13.50		1.1740E+00
			14.00		1.1746E+00
			14.50		1.1750E+00
			15.00		1.1754E+00
			15.50		1.1757E+00
			16.00		1.1759E+00
			16.50		1.1761E+00
			17.00		1.1763E+00
			17.50		1.1764E+00
			18.00		1.1765E+00
			18.50		1.1767E+00
			19.00		1.1769E+00
			19.50		1.1772E+00
			20.00		1.1775E+00
			20.50		1.1777E+00
			21.00		1.1779E+00
			21.50		1.1779E+00
			22.00		1.1780E+00
			22.50		1.1781E+00
			23.00		1.1783E+00
			23.50		1.1783E+00
			24.00		1.1784E+00
			24.50		1.1781E+00
			25.00		1.1779E+00
			25.50		1.1775E+00
			26.00		1.1772E+00
			26.50		1.1769E+00
			27.00		1.1767E+00
			27.50		1.1769E+00
			28.00		1.1770E+00
			28.50		1.1776E+00
			29.00		1.1781E+00
			29.50		1.1786E+00
			30.00		1.1790E+00
			30.50		1.1791E+00
			31.00		1.1793E+00
			31.50		1.1794E+00
			32.00		1.1795E+00
			32.50		1.1796E+00
			33.00		1.1797E+00
			33.50		1.1799E+00
			34.00		1.1802E+00
			34.50		1.1805E+00
			35.00		1.1809E+00
			35.50		1.1815E+00
			36.00		1.1820E+00
			36.50		1.1824E+00
			37.00		1.1827E+00
			37.50		1.1830E+00
			38.00		1.1832E+00
			38.50		1.1836E+00
			39.00		1.1839E+00
			39.50		1.1845E+00
			40.00		1.1851E+00
			40.50		1.1858E+00
			41.00		1.1865E+00
			41.50		1.1869E+00
			42.00		1.1874E+00
			42.50		1.1877E+00
			43.00		1.1881E+00
			43.50		1.1885E+00
			44.00		1.1889E+00
			44.50		1.1894E+00
			45.00		1.1898E+00
			45.50		1.1904E+00
			46.00		1.1909E+00
			46.50		1.1912E+00
			47.00		1.1915E+00
			47.50		1.1912E+00
			48.00		1.1910E+00
			48.50		1.1908E+00
			49.00		1.1905E+00
			49.50		1.1906E+00
			50.00		1.1906E+00
			50.50		1.1909E+00
			51.00		1.1911E+00
			51.50		1.1914E+00
			52.00		1.1917E+00
			52.50		1.1919E+00
			53.00		1.1921E+00
			53.50		1.1922E+00
			54.00		1.1923E+00
			54.50		1.1923E+00
			55.00		1.1924E+00
			55.50		1.1923E+00
			56.00		1.1922E+00
			56.50		1.1921E+00
			57.00		1.1920E+00
			57.50		1.1920E+00
			58.00		1.1920E+00
			58.50		1.1923E+00
			59.00		1.1925E+00
			59.50		1.1928E+00
			60.00		1.1932E+00
			60.50		1.1934E+00
			61.00		1.1937E+00
			61.50		1.1937E+00
			62.00		1.1937E+00
			62.50		1.1936E+00
			63.00		1.1935E+00
			63.50		1.1935E+00
			64.00		1.1935E+00
			64.50		1.1935E+00
			65.00		1.1935E+00
			65.50		1.1936E+00
			66.00		1.1937E+00
			66.50		1.1939E+00
			67.00		1.1941E+00
			67.50		1.1943E+00
			68.00		1.1945E+00
			68.50		1.1946E+00
			69.00		1.1946E+00
			69.50		1.1948E+00
			70.00		1.1950E+00
			70.50		1.1952E+00
			71.00		1.1953E+00
			71.50		1.1953E+00
			72.00		1.1953E+00
			72.50		1.1951E+00
			73.00		1.1949E+00
			73.50		1.1947E+00
			74.00		1.1945E+00
			74.50		1.1942E+00
			75.00		1.1939E+00
			75.50		1.1935E+00
			76.00		1.1931E+00
			76.50		1.1928E+00
			77.00		1.1925E+00
			77.50		1.1925E+00
			78.00		1.1924E+00
			78.50		1.1925E+00
			79.00		1.1927E+00
			79.50		1.1930E+00
			80.00		1.1932E+00
			80.50		1.1932E+00
			81.00		1.1933E+00
			81.50		1.1934E+00
			82.00		1.1935E+00
			82.50		1.1937E+00
			83.00		1.1939E+00
			83.50		1.1940E+00
			84.00		1.1941E+00
			84.50		1.1939E+00
			85.00		1.1938E+00
			85.50		1.1936E+00
			86.00		1.1934E+00
			86.50		1.1933E+00
			87.00		1.1932E+00
			87.50		1.1931E+00
			88.00		1.1930E+00
			88.50		1.1928E+00
			89.00		1.1927E+00
			89.50		1.1923E+00
			90.00		1.1918E+00
			90.50		1.1916E+00
			91.00		1.1915E+00
			91.50		1.1916E+00
			92.00		1.1916E+00
			92.50		1.1916E+00
			93.00		1.1916E+00
			93.50		1.1916E+00
			94.00		1.1915E+00
			94.50		1.1916E+00
			95.00		1.1916E+00
			95.50		1.1916E+00
			96.00		1.1916E+00
			96.50		1.1913E+00
			97.00		1.1911E+00
			97.50		1.1908E+00
			98.00		1.1904E+00
			98.50		1.1901E+00
			99.00		1.1897E+00
			99.50		1.1895E+00
			100.00		1.1893E+00
			100.50		1.1891E+00
			101.00		1.1889E+00
			101.50		1.1887E+00
			102.00		1.1885E+00
			102.50		1.1884E+00
			103.00		1.1883E+00
			103.50		1.1881E+00
			104.00		1.1878E+00
			104.50		1.1873E+00
			105.00		1.1867E+00
			105.50		1.1862E+00
			106.00		1.1858E+00
			106.50		1.1855E+00
			107.00		1.1852E+00
			107.50		1.1850E+00
			108.00		1.1848E+00
			108.50		1.1845E+00
			109.00		1.1842E+00
			109.50		1.1838E+00
			110.00		1.1834E+00
			110.50		1.1830E+00
			111.00		1.1825E+00
			111.50		1.1819E+00
			112.00		1.1813E+00
			112.50		1.1806E+00
			113.00		1.1799E+00
			113.50		1.1795E+00
			114.00		1.1791E+00
			114.50		1.1787E+00
			115.00		1.1783E+00
			115.50		1.1777E+00
			116.00		1.1772E+00
			116.50		1.1766E+00
			117.00		1.1760E+00
			117.50		1.1754E+00
			118.00		1.1748E+00
			118.50		1.1744E+00
			119.00		1.1739E+00
			119.50		1.1734E+00
			120.00		1.1729E+00
			120.50		1.1723E+00
			121.00		1.1718E+00
			121.50		1.1711E+00
			122.00		1.1703E+00
			122.50		1.1695E+00
			123.00		1.1686E+00
			123.50		1.1679E+00
			124.00		1.1672E+00
			124.50		1.1665E+00
			125.00		1.1658E+00
			125.50		1.1650E+00
			126.00		1.1641E+00
			126.50		1.1630E+00
			127.00		1.1620E+00
			127.50		1.1609E+00
			128.00		1.1597E+00
			128.50		1.1581E+00
			129.00		1.1564E+00
			129.50		1.1544E+00
			130.00		1.1524E+00
			130.50		1.1506E+00
			131.00		1.1488E+00
			131.50		1.1472E+00
			132.00		1.1455E+00
			132.50		1.1435E+00
			133.00		1.1414E+00
			133.50		1.1382E+00
			134.00		1.1351E+00
			134.50		1.1312E+00
			135.00		1.1272E+00
			135.50		1.1223E+00
			136.00		1.1174E+00
			136.50		1.1108E+00
			137.00		1.1042E+00
			137.50		1.0940E+00
			138.00		1.0838E+00
			138.50		1.0655E+00
			139.00		1.0472E+00
			139.50		1.0152E+00
			140.00		983.26E-03
			140.50		932.18E-03
			141.00		881.11E-03
			141.50		814.09E-03
			142.00		747.06E-03
			142.50		672.97E-03
			143.00		598.88E-03
			143.50		529.09E-03
			144.00		459.31E-03
			144.50		400.08E-03
			145.00		340.84E-03
			145.50		299.52E-03
			146.00		258.19E-03
			146.50		235.02E-03
			147.00		211.84E-03
			147.50		198.62E-03
			148.00		185.40E-03
			148.50		177.53E-03
			149.00		169.67E-03
			149.50		163.96E-03
			150.00		158.25E-03
			150.50		154.04E-03
			151.00		149.83E-03
			151.50		146.22E-03
			152.00		142.61E-03
			152.50		139.37E-03
			153.00		136.13E-03
			153.50		133.77E-03
			154.00		131.42E-03
			154.50		128.98E-03
			155.00		126.54E-03
			155.50		124.85E-03
			156.00		123.16E-03
			156.50		121.29E-03
			157.00		119.43E-03
			157.50		117.85E-03
			158.00		116.28E-03
			158.50		114.67E-03
			159.00		113.05E-03
			159.50		111.52E-03
			160.00		109.98E-03
			160.50		108.33E-03
			161.00		106.67E-03
			161.50		105.14E-03
			162.00		103.61E-03
			162.50		102.23E-03
			163.00		100.84E-03
			163.50		99.564E-03
			164.00		98.287E-03
			164.50		97.312E-03
			165.00		96.338E-03
			165.50		95.031E-03
			166.00		93.724E-03
			166.50		92.466E-03
			167.00		91.208E-03
			167.50		90.091E-03
			168.00		88.975E-03
			168.50		87.709E-03
			169.00		86.442E-03
			169.50		85.338E-03
			170.00		84.234E-03
			170.50		83.281E-03
			171.00		82.327E-03
			171.50		81.331E-03
			172.00		80.336E-03
			172.50		79.527E-03
			173.00		78.718E-03
			173.50		77.590E-03
			174.00		76.462E-03
			174.50		75.623E-03
			175.00		74.785E-03
			175.50		74.399E-03
			176.00		74.013E-03
		END_DATA
	END_SCAN  2
	BEGIN_SCAN  3
		TASK_NAME=tba PDD Profiles
		PROGRAM=WaterTankScans
		COMMENT=PDD + 5x X
		MEAS_DATE=08-Feb-2021 10:18:50
		LINAC=TRUEBEAMSN4791
		MODALITY=X
		ISOCENTER=1000.00
		INPLANE_AXIS=Y
		CROSSPLANE_AXIS=X
		DEPTH_AXIS=Depth
		INPLANE_AXIS_DIR=TARGET_GUN
		CROSSPLANE_AXIS_DIR=LEFT_RIGHT
		DEPTH_AXIS_DIR=UP_DOWN
		ENERGY=6.00
		NOMINAL_DMAX=15.00
		SSD=900.00
		SCD=450.00
		WEDGE_ANGLE=0.00
		FIELD_INPLANE=300.00
		FIELD_CROSSPLANE=300.00
		FIELD_TYPE=RECTANGULAR
		GANTRY=0.00
		GANTRY_UPRIGHT_POSITION=0
		GANTRY_ROTATION=CW
		COLL_ANGLE=0.00
		COLL_OFFSET_INPLANE=0.00
		COLL_OFFSET_CROSSPLANE=0.00
		SCAN_DEVICE=BeamScan
		SCAN_DEVICE_SETUP=BARA_LEFT_RIGHT
		ELECTROMETER=BeamScan
		RANGE_FIELD=LOW
		RANGE_REFERENCE=MEDIUM
		DETECTOR=THIMBLE_CHAMBER
		DETECTOR_SUBCODE=SEMIFLEX
		DETECTOR_RADIUS=2.40
		DETECTOR_NAME=PTW 31021 Semiflex 3D (1)
		DETECTOR_SN=142316
		DETECTOR_CALIBRATION=588000000.00
		DETECTOR_IS_CALIBRATED=1
		DETECTOR_REFERENCE=THIMBLE_CHAMBER
		DETECTOR_REFERENCE_SUBCODE=SEMIFLEX
		DETECTOR_REFERENCE_RADIUS=2.75
		DETECTOR_REFERENCE_NAME=PTW 31010 Semiflex (1)
		DETECTOR_REFERENCE_SN=â€”
		DETECTOR_REFERENCE_IS_CALIBRATED=0
		DETECTOR_REFERENCE_CALIBRATION=303000000.00
		DETECTOR_HV=400.0
		DETECTOR_REFERENCE_HV=400.0
		DETECTOR_ORIENTATION=HORIZONTAL
		FILTER=FF
		SCAN_SPEED_PROFILE=12.50
		SCAN_PROF_SPEED_DEP=DEPTH
		SCAN_SPEED_PDD=12.50
		SCAN_PDD_SPEED_DEP=ENERGY
		DETECTOR_TYPE=T31021
		REF_FIELD_DEPTH=100.00
		REF_FIELD_DEFINED=ISOCENTER
		REF_FIELD_INPLANE=100.00
		REF_FIELD_CROSSPLANE=100.00
		REF_SCAN_POSITIONS=-85.00;-84.00;-83.00;-82.00;-81.00;-80.00;-79.00;-78.00;-77.00;-76.00;-75.00;-74.00;-73.00;-72.00;-71.00;-70.00;-69.00;-68.00;-67.00;-66.00;-65.00;-64.00;-63.00;-62.00;-61.00;-60.00;-59.00;-58.00;-57.00;-56.00;-55.00;-54.00;-53.00;-52.00;-51.00;-50.00;-49.00;-48.00;-47.00;-46.00;-45.00;-44.00;-43.00;-42.00;-41.00;-40.00;-39.00;-38.00;-37.00;-36.00;-35.00;-34.00;-33.00;-32.00;-31.00;-30.00;-29.00;-28.00;-27.00;-26.00;-25.00;-24.00;-23.00;-22.00;-21.00;-20.00;-19.00;-18.00;-17.00;-16.00;-15.00;-14.00;-13.00;-12.00;-11.00;-10.00;-9.00;-8.00;-7.00;-6.00;-5.00;-4.00;-3.00;-2.00;-1.00;0.00;1.00;2.00;3.00;4.00;5.00;6.00;7.00;8.00;9.00;10.00;11.00;12.00;13.00;14.00;15.00;16.00;17.00;18.00;19.00;20.00;21.00;22.00;23.00;24.00;25.00;26.00;27.00;28.00;29.00;30.00;31.00;32.00;33.00;34.00;35.00;36.00;37.00;38.00;39.00;40.00;41.00;42.00;43.00;44.00;45.00;46.00;47.00;48.00;49.00;50.00;51.00;52.00;53.00;54.00;55.00;56.00;57.00;58.00;59.00;60.00;61.00;62.00;63.00;64.00;65.00;66.00;67.00;68.00;69.00;70.00;71.00;72.00;73.00;74.00;75.00;76.00;77.00;78.00;79.00;80.00;81.00;82.00;83.00;84.00;85.00;
		REF_OVERSCAN_FACTOR=1.00
		SCAN_CURVETYPE=CROSSPLANE_PROFILE
		SCAN_DEPTH=100.00
		SCAN_OFFAXIS_INPLANE=0.00
		SCAN_OFFAXIS_CROSSPLANE=0.00
		SCAN_ANGLE=0.00
		SCAN_DIAGONAL=NOT_DIAGONAL
		SCAN_DIRECTION=POSITIVE
		MEAS_MEDIUM=WATER
		MEAS_PRESET=MEAS_CONTINUOUS_REFERENCE_SCAN
		MEAS_TIME=0.080
		MEAS_UNIT=A.U.
		INCLINATION_ANGLE=0.00
		PRESSURE=1013.25
		TEMPERATURE=20.00
		NORM_TEMPERATURE=20.00
		CORRECTION_FACTOR=1.0000
		EXPECTED_MAX_DOSE_RATE=3.00
		EPOM_DEPTH_SHIFT=0.2
		EPOM_MODE=SHIFT_PROTOCOL
		CORRECTIONS=SMOOTHED_CORR;CAX_CORR;SYMMETRY_CORR;INTERPOLATED_CORR;
		BEGIN_DATA
			-185.00		80.698E-03
			-184.50		80.933E-03
			-184.00		81.168E-03
			-183.50		81.915E-03
			-183.00		82.663E-03
			-182.50		83.645E-03
			-182.00		84.627E-03
			-181.50		85.595E-03
			-181.00		86.563E-03
			-180.50		87.446E-03
			-180.00		88.330E-03
			-179.50		89.288E-03
			-179.00		90.245E-03
			-178.50		91.316E-03
			-178.00		92.387E-03
			-177.50		93.756E-03
			-177.00		95.126E-03
			-176.50		96.031E-03
			-176.00		96.936E-03
			-175.50		98.070E-03
			-175.00		99.203E-03
			-174.50		100.51E-03
			-174.00		101.82E-03
			-173.50		102.94E-03
			-173.00		104.07E-03
			-172.50		105.20E-03
			-172.00		106.33E-03
			-171.50		107.60E-03
			-171.00		108.87E-03
			-170.50		110.25E-03
			-170.00		111.62E-03
			-169.50		113.19E-03
			-169.00		114.75E-03
			-168.50		115.98E-03
			-168.00		117.22E-03
			-167.50		118.64E-03
			-167.00		120.07E-03
			-166.50		122.01E-03
			-166.00		123.95E-03
			-165.50		125.34E-03
			-165.00		126.73E-03
			-164.50		128.41E-03
			-164.00		130.10E-03
			-163.50		131.90E-03
			-163.00		133.71E-03
			-162.50		135.33E-03
			-162.00		136.95E-03
			-161.50		139.19E-03
			-161.00		141.43E-03
			-160.50		143.69E-03
			-160.00		145.96E-03
			-159.50		148.75E-03
			-159.00		151.55E-03
			-158.50		154.58E-03
			-158.00		157.61E-03
			-157.50		161.74E-03
			-157.00		165.87E-03
			-156.50		171.33E-03
			-156.00		176.80E-03
			-155.50		184.94E-03
			-155.00		193.08E-03
			-154.50		206.24E-03
			-154.00		219.40E-03
			-153.50		242.13E-03
			-153.00		264.87E-03
			-152.50		299.33E-03
			-152.00		333.79E-03
			-151.50		378.59E-03
			-151.00		423.40E-03
			-150.50		473.22E-03
			-150.00		523.05E-03
			-149.50		571.14E-03
			-149.00		619.24E-03
			-148.50		659.61E-03
			-148.00		699.98E-03
			-147.50		730.03E-03
			-147.00		760.07E-03
			-146.50		778.83E-03
			-146.00		797.58E-03
			-145.50		808.15E-03
			-145.00		818.71E-03
			-144.50		824.94E-03
			-144.00		831.16E-03
			-143.50		836.18E-03
			-143.00		841.21E-03
			-142.50		845.00E-03
			-142.00		848.79E-03
			-141.50		851.84E-03
			-141.00		854.89E-03
			-140.50		857.54E-03
			-140.00		860.19E-03
			-139.50		862.51E-03
			-139.00		864.84E-03
			-138.50		866.77E-03
			-138.00		868.70E-03
			-137.50		870.38E-03
			-137.00		872.05E-03
			-136.50		873.67E-03
			-136.00		875.29E-03
			-135.50		876.80E-03
			-135.00		878.32E-03
			-134.50		879.55E-03
			-134.00		880.78E-03
			-133.50		881.77E-03
			-133.00		882.76E-03
			-132.50		883.71E-03
			-132.00		884.65E-03
			-131.50		885.63E-03
			-131.00		886.61E-03
			-130.50		887.67E-03
			-130.00		888.73E-03
			-129.50		889.91E-03
			-129.00		891.10E-03
			-128.50		892.28E-03
			-128.00		893.47E-03
			-127.50		894.54E-03
			-127.00		895.60E-03
			-126.50		896.54E-03
			-126.00		897.48E-03
			-125.50		898.31E-03
			-125.00		899.14E-03
			-124.50		900.01E-03
			-124.00		900.89E-03
			-123.50		901.80E-03
			-123.00		902.72E-03
			-122.50		903.47E-03
			-122.00		904.22E-03
			-121.50		904.75E-03
			-121.00		905.28E-03
			-120.50		905.86E-03
			-120.00		906.44E-03
			-119.50		907.28E-03
			-119.00		908.12E-03
			-118.50		909.12E-03
			-118.00		910.12E-03
			-117.50		911.04E-03
			-117.00		911.95E-03
			-116.50		912.71E-03
			-116.00		913.48E-03
			-115.50		914.12E-03
			-115.00		914.77E-03
			-114.50		915.31E-03
			-114.00		915.85E-03
			-113.50		916.20E-03
			-113.00		916.54E-03
			-112.50		916.85E-03
			-112.00		917.17E-03
			-111.50		917.71E-03
			-111.00		918.25E-03
			-110.50		918.84E-03
			-110.00		919.44E-03
			-109.50		919.97E-03
			-109.00		920.50E-03
			-108.50		921.17E-03
			-108.00		921.84E-03
			-107.50		922.53E-03
			-107.00		923.22E-03
			-106.50		923.62E-03
			-106.00		924.02E-03
			-105.50		924.24E-03
			-105.00		924.46E-03
			-104.50		924.80E-03
			-104.00		925.15E-03
			-103.50		925.59E-03
			-103.00		926.02E-03
			-102.50		926.44E-03
			-102.00		926.86E-03
			-101.50		927.35E-03
			-101.00		927.85E-03
			-100.50		928.32E-03
			-100.00		928.79E-03
			-99.50		929.02E-03
			-99.00		929.26E-03
			-98.50		929.35E-03
			-98.00		929.43E-03
			-97.50		929.66E-03
			-97.00		929.89E-03
			-96.50		930.27E-03
			-96.00		930.65E-03
			-95.50		930.98E-03
			-95.00		931.31E-03
			-94.50		931.55E-03
			-94.00		931.78E-03
			-93.50		931.93E-03
			-93.00		932.09E-03
			-92.50		932.22E-03
			-92.00		932.36E-03
			-91.50		932.59E-03
			-91.00		932.82E-03
			-90.50		933.17E-03
			-90.00		933.52E-03
			-89.50		933.94E-03
			-89.00		934.36E-03
			-88.50		934.84E-03
			-88.00		935.33E-03
			-87.50		935.73E-03
			-87.00		936.13E-03
			-86.50		936.33E-03
			-86.00		936.53E-03
			-85.50		936.62E-03
			-85.00		936.71E-03
			-84.50		936.82E-03
			-84.00		936.92E-03
			-83.50		937.10E-03
			-83.00		937.28E-03
			-82.50		937.64E-03
			-82.00		937.99E-03
			-81.50		938.45E-03
			-81.00		938.92E-03
			-80.50		939.32E-03
			-80.00		939.71E-03
			-79.50		939.90E-03
			-79.00		940.09E-03
			-78.50		940.15E-03
			-78.00		940.20E-03
			-77.50		940.32E-03
			-77.00		940.43E-03
			-76.50		940.54E-03
			-76.00		940.65E-03
			-75.50		940.71E-03
			-75.00		940.76E-03
			-74.50		940.95E-03
			-74.00		941.13E-03
			-73.50		941.45E-03
			-73.00		941.77E-03
			-72.50		941.92E-03
			-72.00		942.07E-03
			-71.50		941.96E-03
			-71.00		941.86E-03
			-70.50		941.70E-03
			-70.00		941.55E-03
			-69.50		941.47E-03
			-69.00		941.38E-03
			-68.50		941.42E-03
			-68.00		941.46E-03
			-67.50		941.54E-03
			-67.00		941.62E-03
			-66.50		941.67E-03
			-66.00		941.72E-03
			-65.50		941.82E-03
			-65.00		941.92E-03
			-64.50		942.20E-03
			-64.00		942.49E-03
			-63.50		942.89E-03
			-63.00		943.30E-03
			-62.50		943.55E-03
			-62.00		943.80E-03
			-61.50		943.71E-03
			-61.00		943.62E-03
			-60.50		943.39E-03
			-60.00		943.15E-03
			-59.50		943.15E-03
			-59.00		943.16E-03
			-58.50		943.42E-03
			-58.00		943.69E-03
			-57.50		943.81E-03
			-57.00		943.93E-03
			-56.50		943.69E-03
			-56.00		943.45E-03
			-55.50		943.21E-03
			-55.00		942.97E-03
			-54.50		942.98E-03
			-54.00		943.00E-03
			-53.50		943.11E-03
			-53.00		943.22E-03
			-52.50		943.23E-03
			-52.00		943.23E-03
			-51.50		943.16E-03
			-51.00		943.10E-03
			-50.50		943.03E-03
			-50.00		942.96E-03
			-49.50		942.93E-03
			-49.00		942.90E-03
			-48.50		942.96E-03
			-48.00		943.01E-03
			-47.50		943.12E-03
			-47.00		943.23E-03
			-46.50		943.28E-03
			-46.00		943.33E-03
			-45.50		943.30E-03
			-45.00		943.27E-03
			-44.50		943.23E-03
			-44.00		943.19E-03
			-43.50		943.02E-03
			-43.00		942.86E-03
			-42.50		942.41E-03
			-42.00		941.96E-03
			-41.50		941.38E-03
			-41.00		940.80E-03
			-40.50		940.37E-03
			-40.00		939.94E-03
			-39.50		939.77E-03
			-39.00		939.61E-03
			-38.50		939.60E-03
			-38.00		939.60E-03
			-37.50		939.57E-03
			-37.00		939.54E-03
			-36.50		939.38E-03
			-36.00		939.21E-03
			-35.50		939.01E-03
			-35.00		938.81E-03
			-34.50		938.71E-03
			-34.00		938.62E-03
			-33.50		938.53E-03
			-33.00		938.44E-03
			-32.50		938.29E-03
			-32.00		938.14E-03
			-31.50		938.05E-03
			-31.00		937.96E-03
			-30.50		937.97E-03
			-30.00		937.98E-03
			-29.50		938.00E-03
			-29.00		938.02E-03
			-28.50		938.08E-03
			-28.00		938.14E-03
			-27.50		938.15E-03
			-27.00		938.17E-03
			-26.50		938.01E-03
			-26.00		937.85E-03
			-25.50		937.79E-03
			-25.00		937.73E-03
			-24.50		937.94E-03
			-24.00		938.15E-03
			-23.50		938.35E-03
			-23.00		938.55E-03
			-22.50		938.63E-03
			-22.00		938.71E-03
			-21.50		938.71E-03
			-21.00		938.71E-03
			-20.50		938.58E-03
			-20.00		938.44E-03
			-19.50		938.22E-03
			-19.00		937.99E-03
			-18.50		937.70E-03
			-18.00		937.40E-03
			-17.50		937.05E-03
			-17.00		936.71E-03
			-16.50		936.46E-03
			-16.00		936.20E-03
			-15.50		936.09E-03
			-15.00		935.98E-03
			-14.50		936.05E-03
			-14.00		936.12E-03
			-13.50		936.21E-03
			-13.00		936.29E-03
			-12.50		936.07E-03
			-12.00		935.85E-03
			-11.50		935.42E-03
			-11.00		934.98E-03
			-10.50		934.71E-03
			-10.00		934.44E-03
			-9.50		934.36E-03
			-9.00		934.28E-03
			-8.50		934.19E-03
			-8.00		934.10E-03
			-7.50		933.85E-03
			-7.00		933.61E-03
			-6.50		933.33E-03
			-6.00		933.04E-03
			-5.50		932.88E-03
			-5.00		932.71E-03
			-4.50		932.62E-03
			-4.00		932.53E-03
			-3.50		932.39E-03
			-3.00		932.26E-03
			-2.50		932.19E-03
			-2.00		932.13E-03
			-1.50		932.26E-03
			-1.00		932.40E-03
			-0.50		932.52E-03
			0.00		932.63E-03
			0.50		932.52E-03
			1.00		932.40E-03
			1.50		932.26E-03
			2.00		932.13E-03
			2.50		932.19E-03
			3.00		932.26E-03
			3.50		932.39E-03
			4.00		932.53E-03
			4.50		932.62E-03
			5.00		932.71E-03
			5.50		932.88E-03
			6.00		933.04E-03
			6.50		933.33E-03
			7.00		933.61E-03
			7.50		933.85E-03
			8.00		934.10E-03
			8.50		934.19E-03
			9.00		934.28E-03
			9.50		934.36E-03
			10.00		934.44E-03
			10.50		934.71E-03
			11.00		934.98E-03
			11.50		935.42E-03
			12.00		935.85E-03
			12.50		936.07E-03
			13.00		936.29E-03
			13.50		936.21E-03
			14.00		936.12E-03
			14.50		936.05E-03
			15.00		935.98E-03
			15.50		936.09E-03
			16.00		936.20E-03
			16.50		936.46E-03
			17.00		936.71E-03
			17.50		937.05E-03
			18.00		937.40E-03
			18.50		937.70E-03
			19.00		937.99E-03
			19.50		938.22E-03
			20.00		938.44E-03
			20.50		938.58E-03
			21.00		938.71E-03
			21.50		938.71E-03
			22.00		938.71E-03
			22.50		938.63E-03
			23.00		938.55E-03
			23.50		938.35E-03
			24.00		938.15E-03
			24.50		937.94E-03
			25.00		937.73E-03
			25.50		937.79E-03
			26.00		937.85E-03
			26.50		938.01E-03
			27.00		938.17E-03
			27.50		938.15E-03
			28.00		938.14E-03
			28.50		938.08E-03
			29.00		938.02E-03
			29.50		938.00E-03
			30.00		937.98E-03
			30.50		937.97E-03
			31.00		937.96E-03
			31.50		938.05E-03
			32.00		938.14E-03
			32.50		938.29E-03
			33.00		938.44E-03
			33.50		938.53E-03
			34.00		938.62E-03
			34.50		938.71E-03
			35.00		938.81E-03
			35.50		939.01E-03
			36.00		939.21E-03
			36.50		939.38E-03
			37.00		939.54E-03
			37.50		939.57E-03
			38.00		939.60E-03
			38.50		939.60E-03
			39.00		939.61E-03
			39.50		939.77E-03
			40.00		939.94E-03
			40.50		940.37E-03
			41.00		940.80E-03
			41.50		941.38E-03
			42.00		941.96E-03
			42.50		942.41E-03
			43.00		942.86E-03
			43.50		943.02E-03
			44.00		943.19E-03
			44.50		943.23E-03
			45.00		943.27E-03
			45.50		943.30E-03
			46.00		943.33E-03
			46.50		943.28E-03
			47.00		943.23E-03
			47.50		943.12E-03
			48.00		943.01E-03
			48.50		942.96E-03
			49.00		942.90E-03
			49.50		942.93E-03
			50.00		942.96E-03
			50.50		943.03E-03
			51.00		943.10E-03
			51.50		943.16E-03
			52.00		943.23E-03
			52.50		943.23E-03
			53.00		943.22E-03
			53.50		943.11E-03
			54.00		943.00E-03
			54.50		942.98E-03
			55.00		942.97E-03
			55.50		943.21E-03
			56.00		943.45E-03
			56.50		943.69E-03
			57.00		943.93E-03
			57.50		943.81E-03
			58.00		943.69E-03
			58.50		943.42E-03
			59.00		943.16E-03
			59.50		943.15E-03
			60.00		943.15E-03
			60.50		943.39E-03
			61.00		943.62E-03
			61.50		943.71E-03
			62.00		943.80E-03
			62.50		943.55E-03
			63.00		943.30E-03
			63.50		942.89E-03
			64.00		942.49E-03
			64.50		942.20E-03
			65.00		941.92E-03
			65.50		941.82E-03
			66.00		941.72E-03
			66.50		941.67E-03
			67.00		941.62E-03
			67.50		941.54E-03
			68.00		941.46E-03
			68.50		941.42E-03
			69.00		941.38E-03
			69.50		941.47E-03
			70.00		941.55E-03
			70.50		941.70E-03
			71.00		941.86E-03
			71.50		941.96E-03
			72.00		942.07E-03
			72.50		941.92E-03
			73.00		941.77E-03
			73.50		941.45E-03
			74.00		941.13E-03
			74.50		940.95E-03
			75.00		940.76E-03
			75.50		940.71E-03
			76.00		940.65E-03
			76.50		940.54E-03
			77.00		940.43E-03
			77.50		940.32E-03
			78.00		940.20E-03
			78.50		940.15E-03
			79.00		940.09E-03
			79.50		939.90E-03
			80.00		939.71E-03
			80.50		939.32E-03
			81.00		938.92E-03
			81.50		938.45E-03
			82.00		937.99E-03
			82.50		937.64E-03
			83.00		937.28E-03
			83.50		937.10E-03
			84.00		936.92E-03
			84.50		936.82E-03
			85.00		936.71E-03
			85.50		936.62E-03
			86.00		936.53E-03
			86.50		936.33E-03
			87.00		936.13E-03
			87.50		935.73E-03
			88.00		935.33E-03
			88.50		934.84E-03
			89.00		934.36E-03
			89.50		933.94E-03
			90.00		933.52E-03
			90.50		933.17E-03
			91.00		932.82E-03
			91.50		932.59E-03
			92.00		932.36E-03
			92.50		932.22E-03
			93.00		932.09E-03
			93.50		931.93E-03
			94.00		931.78E-03
			94.50		931.55E-03
			95.00		931.31E-03
			95.50		930.98E-03
			96.00		930.65E-03
			96.50		930.27E-03
			97.00		929.89E-03
			97.50		929.66E-03
			98.00		929.43E-03
			98.50		929.35E-03
			99.00		929.26E-03
			99.50		929.02E-03
			100.00		928.79E-03
			100.50		928.32E-03
			101.00		927.85E-03
			101.50		927.35E-03
			102.00		926.86E-03
			102.50		926.44E-03
			103.00		926.02E-03
			103.50		925.59E-03
			104.00		925.15E-03
			104.50		924.80E-03
			105.00		924.46E-03
			105.50		924.24E-03
			106.00		924.02E-03
			106.50		923.62E-03
			107.00		923.22E-03
			107.50		922.53E-03
			108.00		921.84E-03
			108.50		921.17E-03
			109.00		920.50E-03
			109.50		919.97E-03
			110.00		919.44E-03
			110.50		918.84E-03
			111.00		918.25E-03
			111.50		917.71E-03
			112.00		917.17E-03
			112.50		916.85E-03
			113.00		916.54E-03
			113.50		916.20E-03
			114.00		915.85E-03
			114.50		915.31E-03
			115.00		914.77E-03
			115.50		914.12E-03
			116.00		913.48E-03
			116.50		912.71E-03
			117.00		911.95E-03
			117.50		911.04E-03
			118.00		910.12E-03
			118.50		909.12E-03
			119.00		908.12E-03
			119.50		907.28E-03
			120.00		906.44E-03
			120.50		905.86E-03
			121.00		905.28E-03
			121.50		904.75E-03
			122.00		904.22E-03
			122.50		903.47E-03
			123.00		902.72E-03
			123.50		901.80E-03
			124.00		900.89E-03
			124.50		900.01E-03
			125.00		899.14E-03
			125.50		898.31E-03
			126.00		897.48E-03
			126.50		896.54E-03
			127.00		895.60E-03
			127.50		894.54E-03
			128.00		893.47E-03
			128.50		892.28E-03
			129.00		891.10E-03
			129.50		889.91E-03
			130.00		888.73E-03
			130.50		887.67E-03
			131.00		886.61E-03
			131.50		885.63E-03
			132.00		884.65E-03
			132.50		883.71E-03
			133.00		882.76E-03
			133.50		881.77E-03
			134.00		880.78E-03
			134.50		879.55E-03
			135.00		878.32E-03
			135.50		876.80E-03
			136.00		875.29E-03
			136.50		873.67E-03
			137.00		872.05E-03
			137.50		870.38E-03
			138.00		868.70E-03
			138.50		866.77E-03
			139.00		864.84E-03
			139.50		862.51E-03
			140.00		860.19E-03
			140.50		857.54E-03
			141.00		854.89E-03
			141.50		851.84E-03
			142.00		848.79E-03
			142.50		845.00E-03
			143.00		841.21E-03
			143.50		836.18E-03
			144.00		831.16E-03
			144.50		824.94E-03
			145.00		818.71E-03
			145.50		808.15E-03
			146.00		797.58E-03
			146.50		778.83E-03
			147.00		760.07E-03
			147.50		730.03E-03
			148.00		699.98E-03
			148.50		659.61E-03
			149.00		619.24E-03
			149.50		571.14E-03
			150.00		523.05E-03
			150.50		473.22E-03
			151.00		423.40E-03
			151.50		378.59E-03
			152.00		333.79E-03
			152.50		299.33E-03
			153.00		264.87E-03
			153.50		242.13E-03
			154.00		219.40E-03
			154.50		206.24E-03
			155.00		193.08E-03
			155.50		184.94E-03
			156.00		176.80E-03
			156.50		171.33E-03
			157.00		165.87E-03
			157.50		161.74E-03
			158.00		157.61E-03
			158.50		154.58E-03
			159.00		151.55E-03
			159.50		148.75E-03
			160.00		145.96E-03
			160.50		143.69E-03
			161.00		141.43E-03
			161.50		139.19E-03
			162.00		136.95E-03
			162.50		135.33E-03
			163.00		133.71E-03
			163.50		131.90E-03
			164.00		130.10E-03
			164.50		128.41E-03
			165.00		126.73E-03
			165.50		125.34E-03
			166.00		123.95E-03
			166.50		122.01E-03
			167.00		120.07E-03
			167.50		118.64E-03
			168.00		117.22E-03
			168.50		115.98E-03
			169.00		114.75E-03
			169.50		113.19E-03
			170.00		111.62E-03
			170.50		110.25E-03
			171.00		108.87E-03
			171.50		107.60E-03
			172.00		106.33E-03
			172.50		105.20E-03
			173.00		104.07E-03
			173.50		102.94E-03
			174.00		101.82E-03
			174.50		100.51E-03
			175.00		99.203E-03
			175.50		98.070E-03
			176.00		96.936E-03
			176.50		96.031E-03
			177.00		95.126E-03
			177.50		93.756E-03
			178.00		92.387E-03
			178.50		91.316E-03
			179.00		90.245E-03
			179.50		89.288E-03
			180.00		88.330E-03
			180.50		87.446E-03
			181.00		86.563E-03
			181.50		85.595E-03
			182.00		84.627E-03
			182.50		83.645E-03
			183.00		82.663E-03
			183.50		81.915E-03
			184.00		81.168E-03
			184.50		80.933E-03
			185.00		80.698E-03
		END_DATA
	END_SCAN  3
	BEGIN_SCAN  4
		TASK_NAME=tba PDD Profiles
		PROGRAM=WaterTankScans
		COMMENT=PDD + 5x X
		MEAS_DATE=08-Feb-2021 10:19:23
		LINAC=TRUEBEAMSN4791
		MODALITY=X
		ISOCENTER=1000.00
		INPLANE_AXIS=Y
		CROSSPLANE_AXIS=X
		DEPTH_AXIS=Depth
		INPLANE_AXIS_DIR=TARGET_GUN
		CROSSPLANE_AXIS_DIR=LEFT_RIGHT
		DEPTH_AXIS_DIR=UP_DOWN
		ENERGY=6.00
		NOMINAL_DMAX=15.00
		SSD=900.00
		SCD=450.00
		WEDGE_ANGLE=0.00
		FIELD_INPLANE=300.00
		FIELD_CROSSPLANE=300.00
		FIELD_TYPE=RECTANGULAR
		GANTRY=0.00
		GANTRY_UPRIGHT_POSITION=0
		GANTRY_ROTATION=CW
		COLL_ANGLE=0.00
		COLL_OFFSET_INPLANE=0.00
		COLL_OFFSET_CROSSPLANE=0.00
		SCAN_DEVICE=BeamScan
		SCAN_DEVICE_SETUP=BARA_LEFT_RIGHT
		ELECTROMETER=BeamScan
		RANGE_FIELD=LOW
		RANGE_REFERENCE=MEDIUM
		DETECTOR=THIMBLE_CHAMBER
		DETECTOR_SUBCODE=SEMIFLEX
		DETECTOR_RADIUS=2.40
		DETECTOR_NAME=PTW 31021 Semiflex 3D (1)
		DETECTOR_SN=142316
		DETECTOR_CALIBRATION=588000000.00
		DETECTOR_IS_CALIBRATED=1
		DETECTOR_REFERENCE=THIMBLE_CHAMBER
		DETECTOR_REFERENCE_SUBCODE=SEMIFLEX
		DETECTOR_REFERENCE_RADIUS=2.75
		DETECTOR_REFERENCE_NAME=PTW 31010 Semiflex (1)
		DETECTOR_REFERENCE_SN=â€”
		DETECTOR_REFERENCE_IS_CALIBRATED=0
		DETECTOR_REFERENCE_CALIBRATION=303000000.00
		DETECTOR_HV=400.0
		DETECTOR_REFERENCE_HV=400.0
		DETECTOR_ORIENTATION=HORIZONTAL
		FILTER=FF
		SCAN_SPEED_PROFILE=10.00
		SCAN_PROF_SPEED_DEP=DEPTH
		SCAN_SPEED_PDD=12.50
		SCAN_PDD_SPEED_DEP=ENERGY
		DETECTOR_TYPE=T31021
		REF_FIELD_DEPTH=100.00
		REF_FIELD_DEFINED=ISOCENTER
		REF_FIELD_INPLANE=100.00
		REF_FIELD_CROSSPLANE=100.00
		REF_SCAN_POSITIONS=-85.00;-84.00;-83.00;-82.00;-81.00;-80.00;-79.00;-78.00;-77.00;-76.00;-75.00;-74.00;-73.00;-72.00;-71.00;-70.00;-69.00;-68.00;-67.00;-66.00;-65.00;-64.00;-63.00;-62.00;-61.00;-60.00;-59.00;-58.00;-57.00;-56.00;-55.00;-54.00;-53.00;-52.00;-51.00;-50.00;-49.00;-48.00;-47.00;-46.00;-45.00;-44.00;-43.00;-42.00;-41.00;-40.00;-39.00;-38.00;-37.00;-36.00;-35.00;-34.00;-33.00;-32.00;-31.00;-30.00;-29.00;-28.00;-27.00;-26.00;-25.00;-24.00;-23.00;-22.00;-21.00;-20.00;-19.00;-18.00;-17.00;-16.00;-15.00;-14.00;-13.00;-12.00;-11.00;-10.00;-9.00;-8.00;-7.00;-6.00;-5.00;-4.00;-3.00;-2.00;-1.00;0.00;1.00;2.00;3.00;4.00;5.00;6.00;7.00;8.00;9.00;10.00;11.00;12.00;13.00;14.00;15.00;16.00;17.00;18.00;19.00;20.00;21.00;22.00;23.00;24.00;25.00;26.00;27.00;28.00;29.00;30.00;31.00;32.00;33.00;34.00;35.00;36.00;37.00;38.00;39.00;40.00;41.00;42.00;43.00;44.00;45.00;46.00;47.00;48.00;49.00;50.00;51.00;52.00;53.00;54.00;55.00;56.00;57.00;58.00;59.00;60.00;61.00;62.00;63.00;64.00;65.00;66.00;67.00;68.00;69.00;70.00;71.00;72.00;73.00;74.00;75.00;76.00;77.00;78.00;79.00;80.00;81.00;82.00;83.00;84.00;85.00;
		REF_OVERSCAN_FACTOR=1.00
		SCAN_CURVETYPE=CROSSPLANE_PROFILE
		SCAN_DEPTH=200.00
		SCAN_OFFAXIS_INPLANE=0.00
		SCAN_OFFAXIS_CROSSPLANE=0.00
		SCAN_ANGLE=0.00
		SCAN_DIAGONAL=NOT_DIAGONAL
		SCAN_DIRECTION=NEGATIVE
		MEAS_MEDIUM=WATER
		MEAS_PRESET=MEAS_CONTINUOUS_REFERENCE_SCAN
		MEAS_TIME=0.100
		MEAS_UNIT=A.U.
		INCLINATION_ANGLE=0.00
		PRESSURE=1013.25
		TEMPERATURE=20.00
		NORM_TEMPERATURE=20.00
		CORRECTION_FACTOR=1.0000
		EXPECTED_MAX_DOSE_RATE=3.00
		EPOM_DEPTH_SHIFT=0.2
		EPOM_MODE=SHIFT_PROTOCOL
		CORRECTIONS=SMOOTHED_CORR;CAX_CORR;SYMMETRY_CORR;INTERPOLATED_CORR;
		BEGIN_DATA
			-204.00		68.025E-03
			-203.50		68.171E-03
			-203.00		68.317E-03
			-202.50		69.000E-03
			-202.00		69.684E-03
			-201.50		70.215E-03
			-201.00		70.746E-03
			-200.50		71.483E-03
			-200.00		72.220E-03
			-199.50		72.922E-03
			-199.00		73.625E-03
			-198.50		74.182E-03
			-198.00		74.739E-03
			-197.50		75.305E-03
			-197.00		75.871E-03
			-196.50		76.570E-03
			-196.00		77.269E-03
			-195.50		77.998E-03
			-195.00		78.727E-03
			-194.50		79.420E-03
			-194.00		80.114E-03
			-193.50		80.909E-03
			-193.00		81.704E-03
			-192.50		82.441E-03
			-192.00		83.179E-03
			-191.50		84.059E-03
			-191.00		84.939E-03
			-190.50		85.649E-03
			-190.00		86.358E-03
			-189.50		87.078E-03
			-189.00		87.799E-03
			-188.50		88.620E-03
			-188.00		89.442E-03
			-187.50		90.220E-03
			-187.00		90.998E-03
			-186.50		91.940E-03
			-186.00		92.881E-03
			-185.50		93.805E-03
			-185.00		94.730E-03
			-184.50		95.693E-03
			-184.00		96.656E-03
			-183.50		97.628E-03
			-183.00		98.600E-03
			-182.50		99.530E-03
			-182.00		100.46E-03
			-181.50		101.45E-03
			-181.00		102.44E-03
			-180.50		103.45E-03
			-180.00		104.45E-03
			-179.50		105.50E-03
			-179.00		106.55E-03
			-178.50		107.73E-03
			-178.00		108.90E-03
			-177.50		110.09E-03
			-177.00		111.28E-03
			-176.50		112.63E-03
			-176.00		113.98E-03
			-175.50		115.48E-03
			-175.00		116.98E-03
			-174.50		118.43E-03
			-174.00		119.89E-03
			-173.50		121.72E-03
			-173.00		123.55E-03
			-172.50		126.20E-03
			-172.00		128.86E-03
			-171.50		132.18E-03
			-171.00		135.50E-03
			-170.50		139.97E-03
			-170.00		144.45E-03
			-169.50		151.63E-03
			-169.00		158.81E-03
			-168.50		170.86E-03
			-168.00		182.92E-03
			-167.50		199.95E-03
			-167.00		216.97E-03
			-166.50		238.11E-03
			-166.00		259.25E-03
			-165.50		282.91E-03
			-165.00		306.58E-03
			-164.50		329.65E-03
			-164.00		352.71E-03
			-163.50		372.82E-03
			-163.00		392.93E-03
			-162.50		407.97E-03
			-162.00		423.00E-03
			-161.50		433.06E-03
			-161.00		443.12E-03
			-160.50		449.51E-03
			-160.00		455.90E-03
			-159.50		459.86E-03
			-159.00		463.82E-03
			-158.50		466.90E-03
			-158.00		469.99E-03
			-157.50		472.34E-03
			-157.00		474.69E-03
			-156.50		476.48E-03
			-156.00		478.26E-03
			-155.50		480.08E-03
			-155.00		481.89E-03
			-154.50		483.57E-03
			-154.00		485.24E-03
			-153.50		486.65E-03
			-153.00		488.07E-03
			-152.50		489.27E-03
			-152.00		490.46E-03
			-151.50		491.56E-03
			-151.00		492.65E-03
			-150.50		493.80E-03
			-150.00		494.94E-03
			-149.50		496.06E-03
			-149.00		497.18E-03
			-148.50		498.13E-03
			-148.00		499.08E-03
			-147.50		499.84E-03
			-147.00		500.59E-03
			-146.50		501.29E-03
			-146.00		502.00E-03
			-145.50		502.83E-03
			-145.00		503.67E-03
			-144.50		504.61E-03
			-144.00		505.55E-03
			-143.50		506.44E-03
			-143.00		507.33E-03
			-142.50		508.13E-03
			-142.00		508.93E-03
			-141.50		509.76E-03
			-141.00		510.59E-03
			-140.50		511.43E-03
			-140.00		512.27E-03
			-139.50		513.00E-03
			-139.00		513.72E-03
			-138.50		514.28E-03
			-138.00		514.84E-03
			-137.50		515.36E-03
			-137.00		515.88E-03
			-136.50		516.54E-03
			-136.00		517.20E-03
			-135.50		517.98E-03
			-135.00		518.76E-03
			-134.50		519.54E-03
			-134.00		520.32E-03
			-133.50		521.08E-03
			-133.00		521.83E-03
			-132.50		522.61E-03
			-132.00		523.38E-03
			-131.50		524.11E-03
			-131.00		524.85E-03
			-130.50		525.46E-03
			-130.00		526.07E-03
			-129.50		526.60E-03
			-129.00		527.13E-03
			-128.50		527.65E-03
			-128.00		528.17E-03
			-127.50		528.73E-03
			-127.00		529.29E-03
			-126.50		529.90E-03
			-126.00		530.51E-03
			-125.50		531.17E-03
			-125.00		531.83E-03
			-124.50		532.54E-03
			-124.00		533.25E-03
			-123.50		533.91E-03
			-123.00		534.57E-03
			-122.50		535.06E-03
			-122.00		535.56E-03
			-121.50		535.91E-03
			-121.00		536.26E-03
			-120.50		536.63E-03
			-120.00		536.99E-03
			-119.50		537.52E-03
			-119.00		538.06E-03
			-118.50		538.66E-03
			-118.00		539.26E-03
			-117.50		539.78E-03
			-117.00		540.30E-03
			-116.50		540.77E-03
			-116.00		541.24E-03
			-115.50		541.71E-03
			-115.00		542.17E-03
			-114.50		542.55E-03
			-114.00		542.93E-03
			-113.50		543.23E-03
			-113.00		543.53E-03
			-112.50		543.83E-03
			-112.00		544.14E-03
			-111.50		544.45E-03
			-111.00		544.76E-03
			-110.50		545.07E-03
			-110.00		545.39E-03
			-109.50		545.74E-03
			-109.00		546.08E-03
			-108.50		546.49E-03
			-108.00		546.89E-03
			-107.50		547.35E-03
			-107.00		547.81E-03
			-106.50		548.30E-03
			-106.00		548.78E-03
			-105.50		549.26E-03
			-105.00		549.74E-03
			-104.50		550.18E-03
			-104.00		550.62E-03
			-103.50		550.99E-03
			-103.00		551.36E-03
			-102.50		551.67E-03
			-102.00		551.98E-03
			-101.50		552.26E-03
			-101.00		552.54E-03
			-100.50		552.81E-03
			-100.00		553.07E-03
			-99.50		553.32E-03
			-99.00		553.58E-03
			-98.50		553.88E-03
			-98.00		554.19E-03
			-97.50		554.58E-03
			-97.00		554.97E-03
			-96.50		555.42E-03
			-96.00		555.86E-03
			-95.50		556.32E-03
			-95.00		556.78E-03
			-94.50		557.19E-03
			-94.00		557.61E-03
			-93.50		557.91E-03
			-93.00		558.22E-03
			-92.50		558.51E-03
			-92.00		558.79E-03
			-91.50		559.15E-03
			-91.00		559.51E-03
			-90.50		559.83E-03
			-90.00		560.16E-03
			-89.50		560.29E-03
			-89.00		560.42E-03
			-88.50		560.46E-03
			-88.00		560.50E-03
			-87.50		560.64E-03
			-87.00		560.78E-03
			-86.50		561.06E-03
			-86.00		561.34E-03
			-85.50		561.69E-03
			-85.00		562.04E-03
			-84.50		562.35E-03
			-84.00		562.65E-03
			-83.50		562.89E-03
			-83.00		563.13E-03
			-82.50		563.39E-03
			-82.00		563.64E-03
			-81.50		563.94E-03
			-81.00		564.23E-03
			-80.50		564.45E-03
			-80.00		564.66E-03
			-79.50		564.79E-03
			-79.00		564.92E-03
			-78.50		565.06E-03
			-78.00		565.20E-03
			-77.50		565.33E-03
			-77.00		565.46E-03
			-76.50		565.55E-03
			-76.00		565.64E-03
			-75.50		565.77E-03
			-75.00		565.91E-03
			-74.50		566.17E-03
			-74.00		566.43E-03
			-73.50		566.77E-03
			-73.00		567.12E-03
			-72.50		567.47E-03
			-72.00		567.81E-03
			-71.50		568.06E-03
			-71.00		568.32E-03
			-70.50		568.43E-03
			-70.00		568.54E-03
			-69.50		568.58E-03
			-69.00		568.61E-03
			-68.50		568.68E-03
			-68.00		568.76E-03
			-67.50		568.93E-03
			-67.00		569.10E-03
			-66.50		569.32E-03
			-66.00		569.53E-03
			-65.50		569.71E-03
			-65.00		569.89E-03
			-64.50		570.00E-03
			-64.00		570.12E-03
			-63.50		570.25E-03
			-63.00		570.38E-03
			-62.50		570.63E-03
			-62.00		570.89E-03
			-61.50		571.15E-03
			-61.00		571.41E-03
			-60.50		571.51E-03
			-60.00		571.60E-03
			-59.50		571.56E-03
			-59.00		571.52E-03
			-58.50		571.50E-03
			-58.00		571.49E-03
			-57.50		571.59E-03
			-57.00		571.70E-03
			-56.50		571.95E-03
			-56.00		572.21E-03
			-55.50		572.48E-03
			-55.00		572.75E-03
			-54.50		572.89E-03
			-54.00		573.03E-03
			-53.50		573.06E-03
			-53.00		573.08E-03
			-52.50		573.08E-03
			-52.00		573.08E-03
			-51.50		573.09E-03
			-51.00		573.09E-03
			-50.50		573.06E-03
			-50.00		573.02E-03
			-49.50		572.98E-03
			-49.00		572.95E-03
			-48.50		572.94E-03
			-48.00		572.93E-03
			-47.50		572.88E-03
			-47.00		572.83E-03
			-46.50		572.80E-03
			-46.00		572.76E-03
			-45.50		572.87E-03
			-45.00		572.97E-03
			-44.50		573.10E-03
			-44.00		573.23E-03
			-43.50		573.25E-03
			-43.00		573.27E-03
			-42.50		573.23E-03
			-42.00		573.18E-03
			-41.50		573.13E-03
			-41.00		573.07E-03
			-40.50		573.06E-03
			-40.00		573.04E-03
			-39.50		573.09E-03
			-39.00		573.15E-03
			-38.50		573.16E-03
			-38.00		573.18E-03
			-37.50		573.02E-03
			-37.00		572.87E-03
			-36.50		572.66E-03
			-36.00		572.46E-03
			-35.50		572.47E-03
			-35.00		572.49E-03
			-34.50		572.73E-03
			-34.00		572.98E-03
			-33.50		573.23E-03
			-33.00		573.48E-03
			-32.50		573.64E-03
			-32.00		573.81E-03
			-31.50		573.93E-03
			-31.00		574.05E-03
			-30.50		574.11E-03
			-30.00		574.17E-03
			-29.50		574.12E-03
			-29.00		574.06E-03
			-28.50		573.96E-03
			-28.00		573.86E-03
			-27.50		573.86E-03
			-27.00		573.87E-03
			-26.50		573.99E-03
			-26.00		574.12E-03
			-25.50		574.27E-03
			-25.00		574.41E-03
			-24.50		574.50E-03
			-24.00		574.60E-03
			-23.50		574.60E-03
			-23.00		574.60E-03
			-22.50		574.54E-03
			-22.00		574.47E-03
			-21.50		574.39E-03
			-21.00		574.31E-03
			-20.50		574.21E-03
			-20.00		574.10E-03
			-19.50		573.99E-03
			-19.00		573.88E-03
			-18.50		573.82E-03
			-18.00		573.76E-03
			-17.50		573.78E-03
			-17.00		573.80E-03
			-16.50		573.88E-03
			-16.00		573.96E-03
			-15.50		573.99E-03
			-15.00		574.02E-03
			-14.50		573.94E-03
			-14.00		573.85E-03
			-13.50		573.77E-03
			-13.00		573.70E-03
			-12.50		573.73E-03
			-12.00		573.76E-03
			-11.50		573.82E-03
			-11.00		573.88E-03
			-10.50		573.80E-03
			-10.00		573.73E-03
			-9.50		573.51E-03
			-9.00		573.30E-03
			-8.50		573.11E-03
			-8.00		572.92E-03
			-7.50		572.88E-03
			-7.00		572.83E-03
			-6.50		572.81E-03
			-6.00		572.78E-03
			-5.50		572.69E-03
			-5.00		572.60E-03
			-4.50		572.52E-03
			-4.00		572.43E-03
			-3.50		572.39E-03
			-3.00		572.36E-03
			-2.50		572.30E-03
			-2.00		572.25E-03
			-1.50		572.19E-03
			-1.00		572.12E-03
			-0.50		572.10E-03
			0.00		572.07E-03
			0.50		572.10E-03
			1.00		572.12E-03
			1.50		572.19E-03
			2.00		572.25E-03
			2.50		572.30E-03
			3.00		572.36E-03
			3.50		572.39E-03
			4.00		572.43E-03
			4.50		572.52E-03
			5.00		572.60E-03
			5.50		572.69E-03
			6.00		572.78E-03
			6.50		572.81E-03
			7.00		572.83E-03
			7.50		572.88E-03
			8.00		572.92E-03
			8.50		573.11E-03
			9.00		573.30E-03
			9.50		573.51E-03
			10.00		573.73E-03
			10.50		573.80E-03
			11.00		573.88E-03
			11.50		573.82E-03
			12.00		573.76E-03
			12.50		573.73E-03
			13.00		573.70E-03
			13.50		573.77E-03
			14.00		573.85E-03
			14.50		573.94E-03
			15.00		574.02E-03
			15.50		573.99E-03
			16.00		573.96E-03
			16.50		573.88E-03
			17.00		573.80E-03
			17.50		573.78E-03
			18.00		573.76E-03
			18.50		573.82E-03
			19.00		573.88E-03
			19.50		573.99E-03
			20.00		574.10E-03
			20.50		574.21E-03
			21.00		574.31E-03
			21.50		574.39E-03
			22.00		574.47E-03
			22.50		574.54E-03
			23.00		574.60E-03
			23.50		574.60E-03
			24.00		574.60E-03
			24.50		574.50E-03
			25.00		574.41E-03
			25.50		574.27E-03
			26.00		574.12E-03
			26.50		573.99E-03
			27.00		573.87E-03
			27.50		573.86E-03
			28.00		573.86E-03
			28.50		573.96E-03
			29.00		574.06E-03
			29.50		574.12E-03
			30.00		574.17E-03
			30.50		574.11E-03
			31.00		574.05E-03
			31.50		573.93E-03
			32.00		573.81E-03
			32.50		573.64E-03
			33.00		573.48E-03
			33.50		573.23E-03
			34.00		572.98E-03
			34.50		572.73E-03
			35.00		572.49E-03
			35.50		572.47E-03
			36.00		572.46E-03
			36.50		572.66E-03
			37.00		572.87E-03
			37.50		573.02E-03
			38.00		573.18E-03
			38.50		573.16E-03
			39.00		573.15E-03
			39.50		573.09E-03
			40.00		573.04E-03
			40.50		573.06E-03
			41.00		573.07E-03
			41.50		573.13E-03
			42.00		573.18E-03
			42.50		573.23E-03
			43.00		573.27E-03
			43.50		573.25E-03
			44.00		573.23E-03
			44.50		573.10E-03
			45.00		572.97E-03
			45.50		572.87E-03
			46.00		572.76E-03
			46.50		572.80E-03
			47.00		572.83E-03
			47.50		572.88E-03
			48.00		572.93E-03
			48.50		572.94E-03
			49.00		572.95E-03
			49.50		572.98E-03
			50.00		573.02E-03
			50.50		573.06E-03
			51.00		573.09E-03
			51.50		573.09E-03
			52.00		573.08E-03
			52.50		573.08E-03
			53.00		573.08E-03
			53.50		573.06E-03
			54.00		573.03E-03
			54.50		572.89E-03
			55.00		572.75E-03
			55.50		572.48E-03
			56.00		572.21E-03
			56.50		571.95E-03
			57.00		571.70E-03
			57.50		571.59E-03
			58.00		571.49E-03
			58.50		571.50E-03
			59.00		571.52E-03
			59.50		571.56E-03
			60.00		571.60E-03
			60.50		571.51E-03
			61.00		571.41E-03
			61.50		571.15E-03
			62.00		570.89E-03
			62.50		570.63E-03
			63.00		570.38E-03
			63.50		570.25E-03
			64.00		570.12E-03
			64.50		570.00E-03
			65.00		569.89E-03
			65.50		569.71E-03
			66.00		569.53E-03
			66.50		569.32E-03
			67.00		569.10E-03
			67.50		568.93E-03
			68.00		568.76E-03
			68.50		568.68E-03
			69.00		568.61E-03
			69.50		568.58E-03
			70.00		568.54E-03
			70.50		568.43E-03
			71.00		568.32E-03
			71.50		568.06E-03
			72.00		567.81E-03
			72.50		567.47E-03
			73.00		567.12E-03
			73.50		566.77E-03
			74.00		566.43E-03
			74.50		566.17E-03
			75.00		565.91E-03
			75.50		565.77E-03
			76.00		565.64E-03
			76.50		565.55E-03
			77.00		565.46E-03
			77.50		565.33E-03
			78.00		565.20E-03
			78.50		565.06E-03
			79.00		564.92E-03
			79.50		564.79E-03
			80.00		564.66E-03
			80.50		564.45E-03
			81.00		564.23E-03
			81.50		563.94E-03
			82.00		563.64E-03
			82.50		563.39E-03
			83.00		563.13E-03
			83.50		562.89E-03
			84.00		562.65E-03
			84.50		562.35E-03
			85.00		562.04E-03
			85.50		561.69E-03
			86.00		561.34E-03
			86.50		561.06E-03
			87.00		560.78E-03
			87.50		560.64E-03
			88.00		560.50E-03
			88.50		560.46E-03
			89.00		560.42E-03
			89.50		560.29E-03
			90.00		560.16E-03
			90.50		559.83E-03
			91.00		559.51E-03
			91.50		559.15E-03
			92.00		558.79E-03
			92.50		558.51E-03
			93.00		558.22E-03
			93.50		557.91E-03
			94.00		557.61E-03
			94.50		557.19E-03
			95.00		556.78E-03
			95.50		556.32E-03
			96.00		555.86E-03
			96.50		555.42E-03
			97.00		554.97E-03
			97.50		554.58E-03
			98.00		554.19E-03
			98.50		553.88E-03
			99.00		553.58E-03
			99.50		553.32E-03
			100.00		553.07E-03
			100.50		552.81E-03
			101.00		552.54E-03
			101.50		552.26E-03
			102.00		551.98E-03
			102.50		551.67E-03
			103.00		551.36E-03
			103.50		550.99E-03
			104.00		550.62E-03
			104.50		550.18E-03
			105.00		549.74E-03
			105.50		549.26E-03
			106.00		548.78E-03
			106.50		548.30E-03
			107.00		547.81E-03
			107.50		547.35E-03
			108.00		546.89E-03
			108.50		546.49E-03
			109.00		546.08E-03
			109.50		545.74E-03
			110.00		545.39E-03
			110.50		545.07E-03
			111.00		544.76E-03
			111.50		544.45E-03
			112.00		544.14E-03
			112.50		543.83E-03
			113.00		543.53E-03
			113.50		543.23E-03
			114.00		542.93E-03
			114.50		542.55E-03
			115.00		542.17E-03
			115.50		541.71E-03
			116.00		541.24E-03
			116.50		540.77E-03
			117.00		540.30E-03
			117.50		539.78E-03
			118.00		539.26E-03
			118.50		538.66E-03
			119.00		538.06E-03
			119.50		537.52E-03
			120.00		536.99E-03
			120.50		536.63E-03
			121.00		536.26E-03
			121.50		535.91E-03
			122.00		535.56E-03
			122.50		535.06E-03
			123.00		534.57E-03
			123.50		533.91E-03
			124.00		533.25E-03
			124.50		532.54E-03
			125.00		531.83E-03
			125.50		531.17E-03
			126.00		530.51E-03
			126.50		529.90E-03
			127.00		529.29E-03
			127.50		528.73E-03
			128.00		528.17E-03
			128.50		527.65E-03
			129.00		527.13E-03
			129.50		526.60E-03
			130.00		526.07E-03
			130.50		525.46E-03
			131.00		524.85E-03
			131.50		524.11E-03
			132.00		523.38E-03
			132.50		522.61E-03
			133.00		521.83E-03
			133.50		521.08E-03
			134.00		520.32E-03
			134.50		519.54E-03
			135.00		518.76E-03
			135.50		517.98E-03
			136.00		517.20E-03
			136.50		516.54E-03
			137.00		515.88E-03
			137.50		515.36E-03
			138.00		514.84E-03
			138.50		514.28E-03
			139.00		513.72E-03
			139.50		513.00E-03
			140.00		512.27E-03
			140.50		511.43E-03
			141.00		510.59E-03
			141.50		509.76E-03
			142.00		508.93E-03
			142.50		508.13E-03
			143.00		507.33E-03
			143.50		506.44E-03
			144.00		505.55E-03
			144.50		504.61E-03
			145.00		503.67E-03
			145.50		502.83E-03
			146.00		502.00E-03
			146.50		501.29E-03
			147.00		500.59E-03
			147.50		499.84E-03
			148.00		499.08E-03
			148.50		498.13E-03
			149.00		497.18E-03
			149.50		496.06E-03
			150.00		494.94E-03
			150.50		493.80E-03
			151.00		492.65E-03
			151.50		491.56E-03
			152.00		490.46E-03
			152.50		489.27E-03
			153.00		488.07E-03
			153.50		486.65E-03
			154.00		485.24E-03
			154.50		483.57E-03
			155.00		481.89E-03
			155.50		480.08E-03
			156.00		478.26E-03
			156.50		476.48E-03
			157.00		474.69E-03
			157.50		472.34E-03
			158.00		469.99E-03
			158.50		466.90E-03
			159.00		463.82E-03
			159.50		459.86E-03
			160.00		455.90E-03
			160.50		449.51E-03
			161.00		443.12E-03
			161.50		433.06E-03
			162.00		423.00E-03
			162.50		407.97E-03
			163.00		392.93E-03
			163.50		372.82E-03
			164.00		352.71E-03
			164.50		329.65E-03
			165.00		306.58E-03
			165.50		282.91E-03
			166.00		259.25E-03
			166.50		238.11E-03
			167.00		216.97E-03
			167.50		199.95E-03
			168.00		182.92E-03
			168.50		170.86E-03
			169.00		158.81E-03
			169.50		151.63E-03
			170.00		144.45E-03
			170.50		139.97E-03
			171.00		135.50E-03
			171.50		132.18E-03
			172.00		128.86E-03
			172.50		126.20E-03
			173.00		123.55E-03
			173.50		121.72E-03
			174.00		119.89E-03
			174.50		118.43E-03
			175.00		116.98E-03
			175.50		115.48E-03
			176.00		113.98E-03
			176.50		112.63E-03
			177.00		111.28E-03
			177.50		110.09E-03
			178.00		108.90E-03
			178.50		107.73E-03
			179.00		106.55E-03
			179.50		105.50E-03
			180.00		104.45E-03
			180.50		103.45E-03
			181.00		102.44E-03
			181.50		101.45E-03
			182.00		100.46E-03
			182.50		99.530E-03
			183.00		98.600E-03
			183.50		97.628E-03
			184.00		96.656E-03
			184.50		95.693E-03
			185.00		94.730E-03
			185.50		93.805E-03
			186.00		92.881E-03
			186.50		91.940E-03
			187.00		90.998E-03
			187.50		90.220E-03
			188.00		89.442E-03
			188.50		88.620E-03
			189.00		87.799E-03
			189.50		87.078E-03
			190.00		86.358E-03
			190.50		85.649E-03
			191.00		84.939E-03
			191.50		84.059E-03
			192.00		83.179E-03
			192.50		82.441E-03
			193.00		81.704E-03
			193.50		80.909E-03
			194.00		80.114E-03
			194.50		79.420E-03
			195.00		78.727E-03
			195.50		77.998E-03
			196.00		77.269E-03
			196.50		76.570E-03
			197.00		75.871E-03
			197.50		75.305E-03
			198.00		74.739E-03
			198.50		74.182E-03
			199.00		73.625E-03
			199.50		72.922E-03
			200.00		72.220E-03
			200.50		71.483E-03
			201.00		70.746E-03
			201.50		70.215E-03
			202.00		69.684E-03
			202.50		69.000E-03
			203.00		68.317E-03
			203.50		68.171E-03
			204.00		68.025E-03
		END_DATA
	END_SCAN  4
	BEGIN_SCAN  5
		TASK_NAME=tba PDD Profiles
		PROGRAM=WaterTankScans
		COMMENT=PDD + 5x X
		MEAS_DATE=08-Feb-2021 10:20:10
		LINAC=TRUEBEAMSN4791
		MODALITY=X
		ISOCENTER=1000.00
		INPLANE_AXIS=Y
		CROSSPLANE_AXIS=X
		DEPTH_AXIS=Depth
		INPLANE_AXIS_DIR=TARGET_GUN
		CROSSPLANE_AXIS_DIR=LEFT_RIGHT
		DEPTH_AXIS_DIR=UP_DOWN
		ENERGY=6.00
		NOMINAL_DMAX=15.00
		SSD=900.00
		SCD=450.00
		WEDGE_ANGLE=0.00
		FIELD_INPLANE=300.00
		FIELD_CROSSPLANE=300.00
		FIELD_TYPE=RECTANGULAR
		GANTRY=0.00
		GANTRY_UPRIGHT_POSITION=0
		GANTRY_ROTATION=CW
		COLL_ANGLE=0.00
		COLL_OFFSET_INPLANE=0.00
		COLL_OFFSET_CROSSPLANE=0.00
		SCAN_DEVICE=BeamScan
		SCAN_DEVICE_SETUP=BARA_LEFT_RIGHT
		ELECTROMETER=BeamScan
		RANGE_FIELD=LOW
		RANGE_REFERENCE=MEDIUM
		DETECTOR=THIMBLE_CHAMBER
		DETECTOR_SUBCODE=SEMIFLEX
		DETECTOR_RADIUS=2.40
		DETECTOR_NAME=PTW 31021 Semiflex 3D (1)
		DETECTOR_SN=142316
		DETECTOR_CALIBRATION=588000000.00
		DETECTOR_IS_CALIBRATED=1
		DETECTOR_REFERENCE=THIMBLE_CHAMBER
		DETECTOR_REFERENCE_SUBCODE=SEMIFLEX
		DETECTOR_REFERENCE_RADIUS=2.75
		DETECTOR_REFERENCE_NAME=PTW 31010 Semiflex (1)
		DETECTOR_REFERENCE_SN=â€”
		DETECTOR_REFERENCE_IS_CALIBRATED=0
		DETECTOR_REFERENCE_CALIBRATION=303000000.00
		DETECTOR_HV=400.0
		DETECTOR_REFERENCE_HV=400.0
		DETECTOR_ORIENTATION=HORIZONTAL
		FILTER=FF
		SCAN_SPEED_PROFILE=10.00
		SCAN_PROF_SPEED_DEP=DEPTH
		SCAN_SPEED_PDD=12.50
		SCAN_PDD_SPEED_DEP=ENERGY
		DETECTOR_TYPE=T31021
		REF_FIELD_DEPTH=100.00
		REF_FIELD_DEFINED=ISOCENTER
		REF_FIELD_INPLANE=100.00
		REF_FIELD_CROSSPLANE=100.00
		REF_SCAN_POSITIONS=-85.00;-84.00;-83.00;-82.00;-81.00;-80.00;-79.00;-78.00;-77.00;-76.00;-75.00;-74.00;-73.00;-72.00;-71.00;-70.00;-69.00;-68.00;-67.00;-66.00;-65.00;-64.00;-63.00;-62.00;-61.00;-60.00;-59.00;-58.00;-57.00;-56.00;-55.00;-54.00;-53.00;-52.00;-51.00;-50.00;-49.00;-48.00;-47.00;-46.00;-45.00;-44.00;-43.00;-42.00;-41.00;-40.00;-39.00;-38.00;-37.00;-36.00;-35.00;-34.00;-33.00;-32.00;-31.00;-30.00;-29.00;-28.00;-27.00;-26.00;-25.00;-24.00;-23.00;-22.00;-21.00;-20.00;-19.00;-18.00;-17.00;-16.00;-15.00;-14.00;-13.00;-12.00;-11.00;-10.00;-9.00;-8.00;-7.00;-6.00;-5.00;-4.00;-3.00;-2.00;-1.00;0.00;1.00;2.00;3.00;4.00;5.00;6.00;7.00;8.00;9.00;10.00;11.00;12.00;13.00;14.00;15.00;16.00;17.00;18.00;19.00;20.00;21.00;22.00;23.00;24.00;25.00;26.00;27.00;28.00;29.00;30.00;31.00;32.00;33.00;34.00;35.00;36.00;37.00;38.00;39.00;40.00;41.00;42.00;43.00;44.00;45.00;46.00;47.00;48.00;49.00;50.00;51.00;52.00;53.00;54.00;55.00;56.00;57.00;58.00;59.00;60.00;61.00;62.00;63.00;64.00;65.00;66.00;67.00;68.00;69.00;70.00;71.00;72.00;73.00;74.00;75.00;76.00;77.00;78.00;79.00;80.00;81.00;82.00;83.00;84.00;85.00;
		REF_OVERSCAN_FACTOR=1.00
		SCAN_CURVETYPE=CROSSPLANE_PROFILE
		SCAN_DEPTH=300.00
		SCAN_OFFAXIS_INPLANE=0.00
		SCAN_OFFAXIS_CROSSPLANE=0.00
		SCAN_ANGLE=0.00
		SCAN_DIAGONAL=NOT_DIAGONAL
		SCAN_DIRECTION=POSITIVE
		MEAS_MEDIUM=WATER
		MEAS_PRESET=MEAS_CONTINUOUS_REFERENCE_SCAN
		MEAS_TIME=0.100
		MEAS_UNIT=A.U.
		INCLINATION_ANGLE=0.00
		PRESSURE=1013.25
		TEMPERATURE=20.00
		NORM_TEMPERATURE=20.00
		CORRECTION_FACTOR=1.0000
		EXPECTED_MAX_DOSE_RATE=3.00
		EPOM_DEPTH_SHIFT=0.2
		EPOM_MODE=SHIFT_PROTOCOL
		CORRECTIONS=SMOOTHED_CORR;CAX_CORR;SYMMETRY_CORR;INTERPOLATED_CORR;MODIFIED_CORR;
		BEGIN_DATA
			-221.00		48.392E-03
			-220.50		48.738E-03
			-220.00		49.084E-03
			-219.50		49.429E-03
			-219.00		49.775E-03
			-218.50		50.293E-03
			-218.00		50.812E-03
			-217.50		51.157E-03
			-217.00		51.503E-03
			-216.50		51.849E-03
			-216.00		52.195E-03
			-215.50		52.713E-03
			-215.00		53.232E-03
			-214.50		53.577E-03
			-214.00		53.923E-03
			-213.50		54.269E-03
			-213.00		54.614E-03
			-212.50		55.133E-03
			-212.00		55.651E-03
			-211.50		56.170E-03
			-211.00		56.688E-03
			-210.50		57.207E-03
			-210.00		57.725E-03
			-209.50		58.243E-03
			-209.00		58.762E-03
			-208.50		59.108E-03
			-208.00		59.454E-03
			-207.50		59.799E-03
			-207.00		60.145E-03
			-206.50		60.663E-03
			-206.00		61.182E-03
			-205.50		61.701E-03
			-205.00		62.219E-03
			-204.50		62.564E-03
			-204.00		62.910E-03
			-203.50		63.428E-03
			-203.00		63.947E-03
			-202.50		64.638E-03
			-202.00		65.330E-03
			-201.50		65.675E-03
			-201.00		66.021E-03
			-200.50		66.539E-03
			-200.00		67.058E-03
			-199.50		67.576E-03
			-199.00		68.095E-03
			-198.50		68.613E-03
			-198.00		69.132E-03
			-197.50		69.824E-03
			-197.00		70.515E-03
			-196.50		71.034E-03
			-196.00		71.552E-03
			-195.50		72.071E-03
			-195.00		72.589E-03
			-194.50		73.280E-03
			-194.00		73.971E-03
			-193.50		74.663E-03
			-193.00		75.354E-03
			-192.50		76.218E-03
			-192.00		77.082E-03
			-191.50		77.773E-03
			-191.00		78.465E-03
			-190.50		79.329E-03
			-190.00		80.193E-03
			-189.50		81.057E-03
			-189.00		81.921E-03
			-188.50		82.958E-03
			-188.00		83.995E-03
			-187.50		85.378E-03
			-187.00		86.761E-03
			-186.50		88.662E-03
			-186.00		90.563E-03
			-185.50		93.328E-03
			-185.00		96.093E-03
			-184.50		100.41E-03
			-184.00		104.73E-03
			-183.50		111.12E-03
			-183.00		117.52E-03
			-182.50		125.99E-03
			-182.00		134.46E-03
			-181.50		144.83E-03
			-181.00		155.20E-03
			-180.50		167.13E-03
			-180.00		179.05E-03
			-179.50		190.80E-03
			-179.00		202.56E-03
			-178.50		212.93E-03
			-178.00		223.30E-03
			-177.50		231.59E-03
			-177.00		239.89E-03
			-176.50		245.42E-03
			-176.00		250.95E-03
			-175.50		254.41E-03
			-175.00		257.86E-03
			-174.50		260.28E-03
			-174.00		262.70E-03
			-173.50		264.25E-03
			-173.00		265.81E-03
			-172.50		267.19E-03
			-172.00		268.58E-03
			-171.50		269.79E-03
			-171.00		271.00E-03
			-170.50		272.21E-03
			-170.00		273.42E-03
			-169.50		274.46E-03
			-169.00		275.49E-03
			-168.50		276.35E-03
			-168.00		277.22E-03
			-167.50		278.08E-03
			-167.00		278.95E-03
			-166.50		279.47E-03
			-166.00		279.98E-03
			-165.50		280.67E-03
			-165.00		281.37E-03
			-164.50		281.89E-03
			-164.00		282.40E-03
			-163.50		282.92E-03
			-163.00		283.44E-03
			-162.50		284.13E-03
			-162.00		284.82E-03
			-161.50		285.52E-03
			-161.00		286.21E-03
			-160.50		286.72E-03
			-160.00		287.24E-03
			-159.50		287.76E-03
			-159.00		288.28E-03
			-158.50		288.80E-03
			-158.00		289.32E-03
			-157.50		290.01E-03
			-157.00		290.70E-03
			-156.50		291.22E-03
			-156.00		291.74E-03
			-155.50		292.25E-03
			-155.00		292.77E-03
			-154.50		293.29E-03
			-154.00		293.81E-03
			-153.50		294.33E-03
			-153.00		294.85E-03
			-152.50		295.36E-03
			-152.00		295.88E-03
			-151.50		296.23E-03
			-151.00		296.58E-03
			-150.50		296.93E-03
			-150.00		297.27E-03
			-149.50		297.78E-03
			-149.00		298.30E-03
			-148.50		298.82E-03
			-148.00		299.34E-03
			-147.50		299.69E-03
			-147.00		300.03E-03
			-146.50		300.55E-03
			-146.00		301.07E-03
			-145.50		301.59E-03
			-145.00		302.11E-03
			-144.50		302.46E-03
			-144.00		302.80E-03
			-143.50		303.32E-03
			-143.00		303.84E-03
			-142.50		304.19E-03
			-142.00		304.53E-03
			-141.50		304.88E-03
			-141.00		305.22E-03
			-140.50		305.56E-03
			-140.00		305.91E-03
			-139.50		306.25E-03
			-139.00		306.60E-03
			-138.50		306.94E-03
			-138.00		307.29E-03
			-137.50		307.81E-03
			-137.00		308.33E-03
			-136.50		308.67E-03
			-136.00		309.02E-03
			-135.50		309.37E-03
			-135.00		309.71E-03
			-134.50		310.06E-03
			-134.00		310.40E-03
			-133.50		310.75E-03
			-133.00		311.09E-03
			-132.50		311.44E-03
			-132.00		311.79E-03
			-131.50		311.96E-03
			-131.00		312.13E-03
			-130.50		312.47E-03
			-130.00		312.82E-03
			-129.50		313.34E-03
			-129.00		313.86E-03
			-128.50		314.20E-03
			-128.00		314.55E-03
			-127.50		314.90E-03
			-127.00		315.24E-03
			-126.50		315.59E-03
			-126.00		315.93E-03
			-125.50		316.11E-03
			-125.00		316.28E-03
			-124.50		316.62E-03
			-124.00		316.97E-03
			-123.50		317.31E-03
			-123.00		317.66E-03
			-122.50		318.00E-03
			-122.00		318.35E-03
			-121.50		318.70E-03
			-121.00		319.04E-03
			-120.50		319.39E-03
			-120.00		319.74E-03
			-119.50		319.91E-03
			-119.00		320.08E-03
			-118.50		320.26E-03
			-118.00		320.43E-03
			-117.50		320.60E-03
			-117.00		320.77E-03
			-116.50		321.12E-03
			-116.00		321.46E-03
			-115.50		321.81E-03
			-115.00		322.16E-03
			-114.50		322.33E-03
			-114.00		322.50E-03
			-113.50		322.84E-03
			-113.00		323.19E-03
			-112.50		323.53E-03
			-112.00		323.88E-03
			-111.50		324.23E-03
			-111.00		324.57E-03
			-110.50		324.74E-03
			-110.00		324.92E-03
			-109.50		325.26E-03
			-109.00		325.61E-03
			-108.50		325.79E-03
			-108.00		325.96E-03
			-107.50		326.31E-03
			-107.00		326.65E-03
			-106.50		326.82E-03
			-106.00		326.99E-03
			-105.50		327.17E-03
			-105.00		327.34E-03
			-104.50		327.52E-03
			-104.00		327.69E-03
			-103.50		328.03E-03
			-103.00		328.38E-03
			-102.50		328.72E-03
			-102.00		329.07E-03
			-101.50		329.24E-03
			-101.00		329.41E-03
			-100.50		329.58E-03
			-100.00		329.76E-03
			-99.50		329.94E-03
			-99.00		330.11E-03
			-98.50		330.28E-03
			-98.00		330.45E-03
			-97.50		330.79E-03
			-97.00		331.14E-03
			-96.50		331.32E-03
			-96.00		331.49E-03
			-95.50		331.66E-03
			-95.00		331.83E-03
			-94.50		331.83E-03
			-94.00		331.83E-03
			-93.50		332.18E-03
			-93.00		332.52E-03
			-92.50		332.70E-03
			-92.00		332.87E-03
			-91.50		333.21E-03
			-91.00		333.56E-03
			-90.50		333.73E-03
			-90.00		333.91E-03
			-89.50		334.08E-03
			-89.00		334.25E-03
			-88.50		334.43E-03
			-88.00		334.60E-03
			-87.50		334.95E-03
			-87.00		335.29E-03
			-86.50		335.47E-03
			-86.00		335.64E-03
			-85.50		335.81E-03
			-85.00		335.98E-03
			-84.50		335.98E-03
			-84.00		335.98E-03
			-83.50		336.15E-03
			-83.00		336.33E-03
			-82.50		336.50E-03
			-82.00		336.67E-03
			-81.50		337.02E-03
			-81.00		337.36E-03
			-80.50		337.53E-03
			-80.00		337.71E-03
			-79.50		337.88E-03
			-79.00		338.06E-03
			-78.50		338.23E-03
			-78.00		338.40E-03
			-77.50		338.40E-03
			-77.00		338.40E-03
			-76.50		338.58E-03
			-76.00		338.75E-03
			-75.50		338.75E-03
			-75.00		338.75E-03
			-74.50		338.75E-03
			-74.00		338.75E-03
			-73.50		338.92E-03
			-73.00		339.09E-03
			-72.50		339.43E-03
			-72.00		339.78E-03
			-71.50		339.96E-03
			-71.00		340.13E-03
			-70.50		340.31E-03
			-70.00		340.48E-03
			-69.50		340.65E-03
			-69.00		340.82E-03
			-68.50		340.82E-03
			-68.00		340.82E-03
			-67.50		341.00E-03
			-67.00		341.17E-03
			-66.50		341.34E-03
			-66.00		341.51E-03
			-65.50		341.68E-03
			-65.00		341.86E-03
			-64.50		342.03E-03
			-64.00		342.20E-03
			-63.50		342.20E-03
			-63.00		342.20E-03
			-62.50		342.20E-03
			-62.00		342.20E-03
			-61.50		342.38E-03
			-61.00		342.55E-03
			-60.50		342.55E-03
			-60.00		342.55E-03
			-59.50		342.72E-03
			-59.00		342.89E-03
			-58.50		342.89E-03
			-58.00		342.89E-03
			-57.50		342.89E-03
			-57.00		342.89E-03
			-56.50		343.06E-03
			-56.00		343.24E-03
			-55.50		343.24E-03
			-55.00		343.24E-03
			-54.50		343.41E-03
			-54.00		343.59E-03
			-53.50		343.59E-03
			-53.00		343.59E-03
			-52.50		343.59E-03
			-52.00		343.59E-03
			-51.50		343.59E-03
			-51.00		343.59E-03
			-50.50		343.59E-03
			-50.00		343.59E-03
			-49.50		343.59E-03
			-49.00		343.59E-03
			-48.50		343.76E-03
			-48.00		343.93E-03
			-47.50		343.93E-03
			-47.00		343.93E-03
			-46.50		344.11E-03
			-46.00		344.28E-03
			-45.50		344.28E-03
			-45.00		344.28E-03
			-44.50		344.45E-03
			-44.00		344.62E-03
			-43.50		344.62E-03
			-43.00		344.62E-03
			-42.50		344.62E-03
			-42.00		344.62E-03
			-41.50		344.62E-03
			-41.00		344.62E-03
			-40.50		344.62E-03
			-40.00		344.62E-03
			-39.50		344.79E-03
			-39.00		344.97E-03
			-38.50		344.97E-03
			-38.00		344.97E-03
			-37.50		344.97E-03
			-37.00		344.97E-03
			-36.50		345.14E-03
			-36.00		345.31E-03
			-35.50		345.31E-03
			-35.00		345.31E-03
			-34.50		345.31E-03
			-34.00		345.31E-03
			-33.50		345.31E-03
			-33.00		345.31E-03
			-32.50		345.49E-03
			-32.00		345.66E-03
			-31.50		345.66E-03
			-31.00		345.66E-03
			-30.50		345.66E-03
			-30.00		345.66E-03
			-29.50		345.66E-03
			-29.00		345.66E-03
			-28.50		345.84E-03
			-28.00		346.01E-03
			-27.50		346.18E-03
			-27.00		346.35E-03
			-26.50		346.35E-03
			-26.00		346.35E-03
			-25.50		346.35E-03
			-25.00		346.35E-03
			-24.50		346.18E-03
			-24.00		346.01E-03
			-23.50		345.84E-03
			-23.00		345.66E-03
			-22.50		345.66E-03
			-22.00		345.66E-03
			-21.50		345.49E-03
			-21.00		345.31E-03
			-20.50		345.31E-03
			-20.00		345.31E-03
			-19.50		345.49E-03
			-19.00		345.66E-03
			-18.50		345.66E-03
			-18.00		345.66E-03
			-17.50		345.84E-03
			-17.00		346.01E-03
			-16.50		346.01E-03
			-16.00		346.01E-03
			-15.50		346.01E-03
			-15.00		346.01E-03
			-14.50		346.01E-03
			-14.00		346.01E-03
			-13.50		345.84E-03
			-13.00		345.66E-03
			-12.50		345.66E-03
			-12.00		345.66E-03
			-11.50		345.66E-03
			-11.00		345.66E-03
			-10.50		345.66E-03
			-10.00		345.66E-03
			-9.50		345.66E-03
			-9.00		345.66E-03
			-8.50		345.66E-03
			-8.00		345.66E-03
			-7.50		345.66E-03
			-7.00		345.66E-03
			-6.50		345.66E-03
			-6.00		345.66E-03
			-5.50		345.66E-03
			-5.00		345.66E-03
			-4.50		345.66E-03
			-4.00		345.66E-03
			-3.50		345.66E-03
			-3.00		345.66E-03
			-2.50		345.66E-03
			-2.00		345.66E-03
			-1.50		345.66E-03
			-1.00		345.66E-03
			-0.50		345.66E-03
			0.00		345.66E-03
			0.50		345.66E-03
			1.00		345.66E-03
			1.50		345.66E-03
			2.00		345.66E-03
			2.50		345.66E-03
			3.00		345.66E-03
			3.50		345.66E-03
			4.00		345.66E-03
			4.50		345.66E-03
			5.00		345.66E-03
			5.50		345.66E-03
			6.00		345.66E-03
			6.50		345.66E-03
			7.00		345.66E-03
			7.50		345.66E-03
			8.00		345.66E-03
			8.50		345.66E-03
			9.00		345.66E-03
			9.50		345.66E-03
			10.00		345.66E-03
			10.50		345.66E-03
			11.00		345.66E-03
			11.50		345.66E-03
			12.00		345.66E-03
			12.50		345.66E-03
			13.00		345.66E-03
			13.50		345.84E-03
			14.00		346.01E-03
			14.50		346.01E-03
			15.00		346.01E-03
			15.50		346.01E-03
			16.00		346.01E-03
			16.50		346.01E-03
			17.00		346.01E-03
			17.50		345.84E-03
			18.00		345.66E-03
			18.50		345.66E-03
			19.00		345.66E-03
			19.50		345.49E-03
			20.00		345.31E-03
			20.50		345.31E-03
			21.00		345.31E-03
			21.50		345.49E-03
			22.00		345.66E-03
			22.50		345.66E-03
			23.00		345.66E-03
			23.50		345.84E-03
			24.00		346.01E-03
			24.50		346.18E-03
			25.00		346.35E-03
			25.50		346.35E-03
			26.00		346.35E-03
			26.50		346.35E-03
			27.00		346.35E-03
			27.50		346.18E-03
			28.00		346.01E-03
			28.50		345.84E-03
			29.00		345.66E-03
			29.50		345.66E-03
			30.00		345.66E-03
			30.50		345.66E-03
			31.00		345.66E-03
			31.50		345.66E-03
			32.00		345.66E-03
			32.50		345.49E-03
			33.00		345.31E-03
			33.50		345.31E-03
			34.00		345.31E-03
			34.50		345.31E-03
			35.00		345.31E-03
			35.50		345.31E-03
			36.00		345.31E-03
			36.50		345.14E-03
			37.00		344.97E-03
			37.50		344.97E-03
			38.00		344.97E-03
			38.50		344.97E-03
			39.00		344.97E-03
			39.50		344.79E-03
			40.00		344.62E-03
			40.50		344.62E-03
			41.00		344.62E-03
			41.50		344.62E-03
			42.00		344.62E-03
			42.50		344.62E-03
			43.00		344.62E-03
			43.50		344.62E-03
			44.00		344.62E-03
			44.50		344.45E-03
			45.00		344.28E-03
			45.50		344.28E-03
			46.00		344.28E-03
			46.50		344.11E-03
			47.00		343.93E-03
			47.50		343.93E-03
			48.00		343.93E-03
			48.50		343.76E-03
			49.00		343.59E-03
			49.50		343.59E-03
			50.00		343.59E-03
			50.50		343.59E-03
			51.00		343.59E-03
			51.50		343.59E-03
			52.00		343.59E-03
			52.50		343.59E-03
			53.00		343.59E-03
			53.50		343.59E-03
			54.00		343.59E-03
			54.50		343.41E-03
			55.00		343.24E-03
			55.50		343.24E-03
			56.00		343.24E-03
			56.50		343.06E-03
			57.00		342.89E-03
			57.50		342.89E-03
			58.00		342.89E-03
			58.50		342.89E-03
			59.00		342.89E-03
			59.50		342.72E-03
			60.00		342.55E-03
			60.50		342.55E-03
			61.00		342.55E-03
			61.50		342.38E-03
			62.00		342.20E-03
			62.50		342.20E-03
			63.00		342.20E-03
			63.50		342.20E-03
			64.00		342.20E-03
			64.50		342.03E-03
			65.00		341.86E-03
			65.50		341.68E-03
			66.00		341.51E-03
			66.50		341.34E-03
			67.00		341.17E-03
			67.50		341.00E-03
			68.00		340.82E-03
			68.50		340.82E-03
			69.00		340.82E-03
			69.50		340.65E-03
			70.00		340.48E-03
			70.50		340.31E-03
			71.00		340.13E-03
			71.50		339.96E-03
			72.00		339.78E-03
			72.50		339.43E-03
			73.00		339.09E-03
			73.50		338.92E-03
			74.00		338.75E-03
			74.50		338.75E-03
			75.00		338.75E-03
			75.50		338.75E-03
			76.00		338.75E-03
			76.50		338.58E-03
			77.00		338.40E-03
			77.50		338.40E-03
			78.00		338.40E-03
			78.50		338.23E-03
			79.00		338.06E-03
			79.50		337.88E-03
			80.00		337.71E-03
			80.50		337.53E-03
			81.00		337.36E-03
			81.50		337.02E-03
			82.00		336.67E-03
			82.50		336.50E-03
			83.00		336.33E-03
			83.50		336.15E-03
			84.00		335.98E-03
			84.50		335.98E-03
			85.00		335.98E-03
			85.50		335.81E-03
			86.00		335.64E-03
			86.50		335.47E-03
			87.00		335.29E-03
			87.50		334.95E-03
			88.00		334.60E-03
			88.50		334.43E-03
			89.00		334.25E-03
			89.50		334.08E-03
			90.00		333.91E-03
			90.50		333.73E-03
			91.00		333.56E-03
			91.50		333.21E-03
			92.00		332.87E-03
			92.50		332.70E-03
			93.00		332.52E-03
			93.50		332.18E-03
			94.00		331.83E-03
			94.50		331.83E-03
			95.00		331.83E-03
			95.50		331.66E-03
			96.00		331.49E-03
			96.50		331.32E-03
			97.00		331.14E-03
			97.50		330.79E-03
			98.00		330.45E-03
			98.50		330.28E-03
			99.00		330.11E-03
			99.50		329.94E-03
			100.00		329.76E-03
			100.50		329.58E-03
			101.00		329.41E-03
			101.50		329.24E-03
			102.00		329.07E-03
			102.50		328.72E-03
			103.00		328.38E-03
			103.50		328.03E-03
			104.00		327.69E-03
			104.50		327.52E-03
			105.00		327.34E-03
			105.50		327.17E-03
			106.00		326.99E-03
			106.50		326.82E-03
			107.00		326.65E-03
			107.50		326.31E-03
			108.00		325.96E-03
			108.50		325.79E-03
			109.00		325.61E-03
			109.50		325.26E-03
			110.00		324.92E-03
			110.50		324.74E-03
			111.00		324.57E-03
			111.50		324.23E-03
			112.00		323.88E-03
			112.50		323.53E-03
			113.00		323.19E-03
			113.50		322.84E-03
			114.00		322.50E-03
			114.50		322.33E-03
			115.00		322.16E-03
			115.50		321.81E-03
			116.00		321.46E-03
			116.50		321.12E-03
			117.00		320.77E-03
			117.50		320.60E-03
			118.00		320.43E-03
			118.50		320.26E-03
			119.00		320.08E-03
			119.50		319.91E-03
			120.00		319.74E-03
			120.50		319.39E-03
			121.00		319.04E-03
			121.50		318.70E-03
			122.00		318.35E-03
			122.50		318.00E-03
			123.00		317.66E-03
			123.50		317.31E-03
			124.00		316.97E-03
			124.50		316.62E-03
			125.00		316.28E-03
			125.50		316.11E-03
			126.00		315.93E-03
			126.50		315.59E-03
			127.00		315.24E-03
			127.50		314.90E-03
			128.00		314.55E-03
			128.50		314.20E-03
			129.00		313.86E-03
			129.50		313.34E-03
			130.00		312.82E-03
			130.50		312.47E-03
			131.00		312.13E-03
			131.50		311.96E-03
			132.00		311.79E-03
			132.50		311.44E-03
			133.00		311.09E-03
			133.50		310.75E-03
			134.00		310.40E-03
			134.50		310.06E-03
			135.00		309.71E-03
			135.50		309.37E-03
			136.00		309.02E-03
			136.50		308.67E-03
			137.00		308.33E-03
			137.50		307.81E-03
			138.00		307.29E-03
			138.50		306.94E-03
			139.00		306.60E-03
			139.50		306.25E-03
			140.00		305.91E-03
			140.50		305.56E-03
			141.00		305.22E-03
			141.50		304.88E-03
			142.00		304.53E-03
			142.50		304.19E-03
			143.00		303.84E-03
			143.50		303.32E-03
			144.00		302.80E-03
			144.50		302.46E-03
			145.00		302.11E-03
			145.50		301.59E-03
			146.00		301.07E-03
			146.50		300.55E-03
			147.00		300.03E-03
			147.50		299.69E-03
			148.00		299.34E-03
			148.50		298.82E-03
			149.00		298.30E-03
			149.50		297.78E-03
			150.00		297.27E-03
			150.50		296.93E-03
			151.00		296.58E-03
			151.50		296.23E-03
			152.00		295.88E-03
			152.50		295.36E-03
			153.00		294.85E-03
			153.50		294.33E-03
			154.00		293.81E-03
			154.50		293.29E-03
			155.00		292.77E-03
			155.50		292.25E-03
			156.00		291.74E-03
			156.50		291.22E-03
			157.00		290.70E-03
			157.50		290.01E-03
			158.00		289.32E-03
			158.50		288.80E-03
			159.00		288.28E-03
			159.50		287.76E-03
			160.00		287.24E-03
			160.50		286.72E-03
			161.00		286.21E-03
			161.50		285.52E-03
			162.00		284.82E-03
			162.50		284.13E-03
			163.00		283.44E-03
			163.50		282.92E-03
			164.00		282.40E-03
			164.50		281.89E-03
			165.00		281.37E-03
			165.50		280.67E-03
			166.00		279.98E-03
			166.50		279.47E-03
			167.00		278.95E-03
			167.50		278.08E-03
			168.00		277.22E-03
			168.50		276.35E-03
			169.00		275.49E-03
			169.50		274.46E-03
			170.00		273.42E-03
			170.50		272.21E-03
			171.00		271.00E-03
			171.50		269.79E-03
			172.00		268.58E-03
			172.50		267.19E-03
			173.00		265.81E-03
			173.50		264.25E-03
			174.00		262.70E-03
			174.50		260.28E-03
			175.00		257.86E-03
			175.50		254.41E-03
			176.00		250.95E-03
			176.50		245.42E-03
			177.00		239.89E-03
			177.50		231.59E-03
			178.00		223.30E-03
			178.50		212.93E-03
			179.00		202.56E-03
			179.50		190.80E-03
			180.00		179.05E-03
			180.50		167.13E-03
			181.00		155.20E-03
			181.50		144.83E-03
			182.00		134.46E-03
			182.50		125.99E-03
			183.00		117.52E-03
			183.50		111.12E-03
			184.00		104.73E-03
			184.50		100.41E-03
			185.00		96.093E-03
			185.50		93.328E-03
			186.00		90.563E-03
			186.50		88.662E-03
			187.00		86.761E-03
			187.50		85.378E-03
			188.00		83.995E-03
			188.50		82.958E-03
			189.00		81.921E-03
			189.50		81.057E-03
			190.00		80.193E-03
			190.50		79.329E-03
			191.00		78.465E-03
			191.50		77.773E-03
			192.00		77.082E-03
			192.50		76.218E-03
			193.00		75.354E-03
			193.50		74.663E-03
			194.00		73.971E-03
			194.50		73.280E-03
			195.00		72.589E-03
			195.50		72.071E-03
			196.00		71.552E-03
			196.50		71.034E-03
			197.00		70.515E-03
			197.50		69.824E-03
			198.00		69.132E-03
			198.50		68.613E-03
			199.00		68.095E-03
			199.50		67.576E-03
			200.00		67.058E-03
			200.50		66.539E-03
			201.00		66.021E-03
			201.50		65.675E-03
			202.00		65.330E-03
			202.50		64.638E-03
			203.00		63.947E-03
			203.50		63.428E-03
			204.00		62.910E-03
			204.50		62.564E-03
			205.00		62.219E-03
			205.50		61.701E-03
			206.00		61.182E-03
			206.50		60.663E-03
			207.00		60.145E-03
			207.50		59.799E-03
			208.00		59.454E-03
			208.50		59.108E-03
			209.00		58.762E-03
			209.50		58.243E-03
			210.00		57.725E-03
			210.50		57.207E-03
			211.00		56.688E-03
			211.50		56.170E-03
			212.00		55.651E-03
			212.50		55.133E-03
			213.00		54.614E-03
			213.50		54.269E-03
			214.00		53.923E-03
			214.50		53.577E-03
			215.00		53.232E-03
			215.50		52.713E-03
			216.00		52.195E-03
			216.50		51.849E-03
			217.00		51.503E-03
			217.50		51.157E-03
			218.00		50.812E-03
			218.50		50.293E-03
			219.00		49.775E-03
			219.50		49.429E-03
			220.00		49.084E-03
			220.50		48.738E-03
			221.00		48.392E-03
		END_DATA
	END_SCAN  5
END_SCAN_DATA
