BEGIN_SCAN_DATA
	FORMAT=CC-Export V1.9                  
	FILE_CREATION_DATE=26-Jul-2022 10:31:02
	LAST_MODIFIED=26-Jul-2022 10:31:02
	BEGIN_SCAN  1
		TASK_NAME=tba PDD Profiles
		PROGRAM=WaterTankScans
		COMMENT=PDD + 5x X
		MEAS_DATE=08-Feb-2021 09:29:25
		LINAC=TRUEBEAMSN4791
		MODALITY=X
		ISOCENTER=1000.00
		INPLANE_AXIS=Y
		CROSSPLANE_AXIS=X
		DEPTH_AXIS=Depth
		INPLANE_AXIS_DIR=TARGET_GUN
		CROSSPLANE_AXIS_DIR=LEFT_RIGHT
		DEPTH_AXIS_DIR=UP_DOWN
		ENERGY=6.00
		NOMINAL_DMAX=15.00
		SSD=900.00
		SCD=450.00
		WEDGE_ANGLE=0.00
		FIELD_INPLANE=20.00
		FIELD_CROSSPLANE=20.00
		FIELD_TYPE=RECTANGULAR
		GANTRY=0.00
		GANTRY_UPRIGHT_POSITION=0
		GANTRY_ROTATION=CW
		COLL_ANGLE=0.00
		COLL_OFFSET_INPLANE=0.00
		COLL_OFFSET_CROSSPLANE=0.00
		SCAN_DEVICE=BeamScan
		SCAN_DEVICE_SETUP=BARA_LEFT_RIGHT
		ELECTROMETER=BeamScan
		RANGE_FIELD=LOW
		RANGE_REFERENCE=MEDIUM
		DETECTOR=THIMBLE_CHAMBER
		DETECTOR_SUBCODE=SEMIFLEX
		DETECTOR_RADIUS=2.40
		DETECTOR_NAME=PTW 31021 Semiflex 3D (1)
		DETECTOR_SN=142316
		DETECTOR_CALIBRATION=588000000.00
		DETECTOR_IS_CALIBRATED=1
		DETECTOR_REFERENCE=THIMBLE_CHAMBER
		DETECTOR_REFERENCE_SUBCODE=SEMIFLEX
		DETECTOR_REFERENCE_RADIUS=2.75
		DETECTOR_REFERENCE_NAME=PTW 31010 Semiflex (1)
		DETECTOR_REFERENCE_SN=—
		DETECTOR_REFERENCE_IS_CALIBRATED=0
		DETECTOR_REFERENCE_CALIBRATION=303000000.00
		DETECTOR_HV=400.0
		DETECTOR_REFERENCE_HV=400.0
		DETECTOR_ORIENTATION=HORIZONTAL
		FILTER=FF
		SCAN_SPEED_PROFILE=12.50
		SCAN_PROF_SPEED_DEP=DEPTH
		SCAN_SPEED_PDD=12.50
		SCAN_PDD_SPEED_DEP=ENERGY
		DETECTOR_TYPE=T31021
		REF_FIELD_DEPTH=100.00
		REF_FIELD_DEFINED=ISOCENTER
		REF_FIELD_INPLANE=100.00
		REF_FIELD_CROSSPLANE=100.00
		REF_SCAN_POSITIONS=-85.00;-84.00;-83.00;-82.00;-81.00;-80.00;-79.00;-78.00;-77.00;-76.00;-75.00;-74.00;-73.00;-72.00;-71.00;-70.00;-69.00;-68.00;-67.00;-66.00;-65.00;-64.00;-63.00;-62.00;-61.00;-60.00;-59.00;-58.00;-57.00;-56.00;-55.00;-54.00;-53.00;-52.00;-51.00;-50.00;-49.00;-48.00;-47.00;-46.00;-45.00;-44.00;-43.00;-42.00;-41.00;-40.00;-39.00;-38.00;-37.00;-36.00;-35.00;-34.00;-33.00;-32.00;-31.00;-30.00;-29.00;-28.00;-27.00;-26.00;-25.00;-24.00;-23.00;-22.00;-21.00;-20.00;-19.00;-18.00;-17.00;-16.00;-15.00;-14.00;-13.00;-12.00;-11.00;-10.00;-9.00;-8.00;-7.00;-6.00;-5.00;-4.00;-3.00;-2.00;-1.00;0.00;1.00;2.00;3.00;4.00;5.00;6.00;7.00;8.00;9.00;10.00;11.00;12.00;13.00;14.00;15.00;16.00;17.00;18.00;19.00;20.00;21.00;22.00;23.00;24.00;25.00;26.00;27.00;28.00;29.00;30.00;31.00;32.00;33.00;34.00;35.00;36.00;37.00;38.00;39.00;40.00;41.00;42.00;43.00;44.00;45.00;46.00;47.00;48.00;49.00;50.00;51.00;52.00;53.00;54.00;55.00;56.00;57.00;58.00;59.00;60.00;61.00;62.00;63.00;64.00;65.00;66.00;67.00;68.00;69.00;70.00;71.00;72.00;73.00;74.00;75.00;76.00;77.00;78.00;79.00;80.00;81.00;82.00;83.00;84.00;85.00;
		REF_OVERSCAN_FACTOR=1.00
		SCAN_CURVETYPE=CROSSPLANE_PROFILE
		SCAN_DEPTH=15.00
		SCAN_OFFAXIS_INPLANE=0.00
		SCAN_OFFAXIS_CROSSPLANE=0.00
		SCAN_ANGLE=0.00
		SCAN_DIAGONAL=NOT_DIAGONAL
		SCAN_DIRECTION=POSITIVE
		MEAS_MEDIUM=WATER
		MEAS_PRESET=MEAS_CONTINUOUS_REFERENCE_SCAN
		MEAS_TIME=0.080
		MEAS_UNIT=A.U.
		INCLINATION_ANGLE=0.00
		PRESSURE=1013.25
		TEMPERATURE=20.00
		NORM_TEMPERATURE=20.00
		CORRECTION_FACTOR=1.0000
		EXPECTED_MAX_DOSE_RATE=3.00
		EPOM_DEPTH_SHIFT=0.2
		EPOM_MODE=SHIFT_PROTOCOL
		CORRECTIONS=SMOOTHED_CORR;CAX_CORR;SYMMETRY_CORR;INTERPOLATED_CORR;
		BEGIN_DATA
			-42.00		15.803E-03
			-41.50		15.802E-03
			-41.00		15.801E-03
			-40.50		16.087E-03
			-40.00		16.373E-03
			-39.50		16.482E-03
			-39.00		16.591E-03
			-38.50		16.775E-03
			-38.00		16.959E-03
			-37.50		17.171E-03
			-37.00		17.382E-03
			-36.50		17.555E-03
			-36.00		17.728E-03
			-35.50		18.103E-03
			-35.00		18.477E-03
			-34.50		18.595E-03
			-34.00		18.713E-03
			-33.50		19.109E-03
			-33.00		19.506E-03
			-32.50		19.740E-03
			-32.00		19.974E-03
			-31.50		20.402E-03
			-31.00		20.829E-03
			-30.50		21.315E-03
			-30.00		21.801E-03
			-29.50		22.228E-03
			-29.00		22.656E-03
			-28.50		23.082E-03
			-28.00		23.509E-03
			-27.50		24.246E-03
			-27.00		24.983E-03
			-26.50		25.717E-03
			-26.00		26.450E-03
			-25.50		27.048E-03
			-25.00		27.646E-03
			-24.50		28.508E-03
			-24.00		29.369E-03
			-23.50		30.253E-03
			-23.00		31.136E-03
			-22.50		32.210E-03
			-22.00		33.285E-03
			-21.50		34.968E-03
			-21.00		36.651E-03
			-20.50		39.045E-03
			-20.00		41.439E-03
			-19.50		44.772E-03
			-19.00		48.105E-03
			-18.50		52.892E-03
			-18.00		57.680E-03
			-17.50		64.301E-03
			-17.00		70.923E-03
			-16.50		81.123E-03
			-16.00		91.323E-03
			-15.50		107.43E-03
			-15.00		123.53E-03
			-14.50		151.22E-03
			-14.00		178.91E-03
			-13.50		229.18E-03
			-13.00		279.45E-03
			-12.50		374.84E-03
			-12.00		470.24E-03
			-11.50		634.95E-03
			-11.00		799.67E-03
			-10.50		1.0319E+00
			-10.00		1.2641E+00
			-9.50		1.5388E+00
			-9.00		1.8135E+00
			-8.50		2.0923E+00
			-8.00		2.3711E+00
			-7.50		2.6185E+00
			-7.00		2.8659E+00
			-6.50		3.0548E+00
			-6.00		3.2437E+00
			-5.50		3.3604E+00
			-5.00		3.4770E+00
			-4.50		3.5347E+00
			-4.00		3.5924E+00
			-3.50		3.6249E+00
			-3.00		3.6574E+00
			-2.50		3.6781E+00
			-2.00		3.6989E+00
			-1.50		3.7086E+00
			-1.00		3.7183E+00
			-0.50		3.7204E+00
			0.00		3.7226E+00
			0.50		3.7204E+00
			1.00		3.7183E+00
			1.50		3.7086E+00
			2.00		3.6989E+00
			2.50		3.6781E+00
			3.00		3.6574E+00
			3.50		3.6249E+00
			4.00		3.5924E+00
			4.50		3.5347E+00
			5.00		3.4770E+00
			5.50		3.3604E+00
			6.00		3.2437E+00
			6.50		3.0548E+00
			7.00		2.8659E+00
			7.50		2.6185E+00
			8.00		2.3711E+00
			8.50		2.0923E+00
			9.00		1.8135E+00
			9.50		1.5388E+00
			10.00		1.2641E+00
			10.50		1.0319E+00
			11.00		799.67E-03
			11.50		634.95E-03
			12.00		470.24E-03
			12.50		374.84E-03
			13.00		279.45E-03
			13.50		229.18E-03
			14.00		178.91E-03
			14.50		151.22E-03
			15.00		123.53E-03
			15.50		107.43E-03
			16.00		91.323E-03
			16.50		81.123E-03
			17.00		70.923E-03
			17.50		64.301E-03
			18.00		57.680E-03
			18.50		52.892E-03
			19.00		48.105E-03
			19.50		44.772E-03
			20.00		41.439E-03
			20.50		39.045E-03
			21.00		36.651E-03
			21.50		34.968E-03
			22.00		33.285E-03
			22.50		32.210E-03
			23.00		31.136E-03
			23.50		30.253E-03
			24.00		29.369E-03
			24.50		28.508E-03
			25.00		27.646E-03
			25.50		27.048E-03
			26.00		26.450E-03
			26.50		25.717E-03
			27.00		24.983E-03
			27.50		24.246E-03
			28.00		23.509E-03
			28.50		23.082E-03
			29.00		22.656E-03
			29.50		22.228E-03
			30.00		21.801E-03
			30.50		21.315E-03
			31.00		20.829E-03
			31.50		20.402E-03
			32.00		19.974E-03
			32.50		19.740E-03
			33.00		19.506E-03
			33.50		19.109E-03
			34.00		18.713E-03
			34.50		18.595E-03
			35.00		18.477E-03
			35.50		18.103E-03
			36.00		17.728E-03
			36.50		17.555E-03
			37.00		17.382E-03
			37.50		17.171E-03
			38.00		16.959E-03
			38.50		16.775E-03
			39.00		16.591E-03
			39.50		16.482E-03
			40.00		16.373E-03
			40.50		16.087E-03
			41.00		15.801E-03
			41.50		15.802E-03
			42.00		15.803E-03
		END_DATA
	END_SCAN  1
	BEGIN_SCAN  2
		TASK_NAME=tba PDD Profiles
		PROGRAM=WaterTankScans
		COMMENT=PDD + 5x X
		MEAS_DATE=08-Feb-2021 09:29:35
		LINAC=TRUEBEAMSN4791
		MODALITY=X
		ISOCENTER=1000.00
		INPLANE_AXIS=Y
		CROSSPLANE_AXIS=X
		DEPTH_AXIS=Depth
		INPLANE_AXIS_DIR=TARGET_GUN
		CROSSPLANE_AXIS_DIR=LEFT_RIGHT
		DEPTH_AXIS_DIR=UP_DOWN
		ENERGY=6.00
		NOMINAL_DMAX=15.00
		SSD=900.00
		SCD=450.00
		WEDGE_ANGLE=0.00
		FIELD_INPLANE=20.00
		FIELD_CROSSPLANE=20.00
		FIELD_TYPE=RECTANGULAR
		GANTRY=0.00
		GANTRY_UPRIGHT_POSITION=0
		GANTRY_ROTATION=CW
		COLL_ANGLE=0.00
		COLL_OFFSET_INPLANE=0.00
		COLL_OFFSET_CROSSPLANE=0.00
		SCAN_DEVICE=BeamScan
		SCAN_DEVICE_SETUP=BARA_LEFT_RIGHT
		ELECTROMETER=BeamScan
		RANGE_FIELD=LOW
		RANGE_REFERENCE=MEDIUM
		DETECTOR=THIMBLE_CHAMBER
		DETECTOR_SUBCODE=SEMIFLEX
		DETECTOR_RADIUS=2.40
		DETECTOR_NAME=PTW 31021 Semiflex 3D (1)
		DETECTOR_SN=142316
		DETECTOR_CALIBRATION=588000000.00
		DETECTOR_IS_CALIBRATED=1
		DETECTOR_REFERENCE=THIMBLE_CHAMBER
		DETECTOR_REFERENCE_SUBCODE=SEMIFLEX
		DETECTOR_REFERENCE_RADIUS=2.75
		DETECTOR_REFERENCE_NAME=PTW 31010 Semiflex (1)
		DETECTOR_REFERENCE_SN=—
		DETECTOR_REFERENCE_IS_CALIBRATED=0
		DETECTOR_REFERENCE_CALIBRATION=303000000.00
		DETECTOR_HV=400.0
		DETECTOR_REFERENCE_HV=400.0
		DETECTOR_ORIENTATION=HORIZONTAL
		FILTER=FF
		SCAN_SPEED_PROFILE=12.50
		SCAN_PROF_SPEED_DEP=DEPTH
		SCAN_SPEED_PDD=12.50
		SCAN_PDD_SPEED_DEP=ENERGY
		DETECTOR_TYPE=T31021
		REF_FIELD_DEPTH=100.00
		REF_FIELD_DEFINED=ISOCENTER
		REF_FIELD_INPLANE=100.00
		REF_FIELD_CROSSPLANE=100.00
		REF_SCAN_POSITIONS=-85.00;-84.00;-83.00;-82.00;-81.00;-80.00;-79.00;-78.00;-77.00;-76.00;-75.00;-74.00;-73.00;-72.00;-71.00;-70.00;-69.00;-68.00;-67.00;-66.00;-65.00;-64.00;-63.00;-62.00;-61.00;-60.00;-59.00;-58.00;-57.00;-56.00;-55.00;-54.00;-53.00;-52.00;-51.00;-50.00;-49.00;-48.00;-47.00;-46.00;-45.00;-44.00;-43.00;-42.00;-41.00;-40.00;-39.00;-38.00;-37.00;-36.00;-35.00;-34.00;-33.00;-32.00;-31.00;-30.00;-29.00;-28.00;-27.00;-26.00;-25.00;-24.00;-23.00;-22.00;-21.00;-20.00;-19.00;-18.00;-17.00;-16.00;-15.00;-14.00;-13.00;-12.00;-11.00;-10.00;-9.00;-8.00;-7.00;-6.00;-5.00;-4.00;-3.00;-2.00;-1.00;0.00;1.00;2.00;3.00;4.00;5.00;6.00;7.00;8.00;9.00;10.00;11.00;12.00;13.00;14.00;15.00;16.00;17.00;18.00;19.00;20.00;21.00;22.00;23.00;24.00;25.00;26.00;27.00;28.00;29.00;30.00;31.00;32.00;33.00;34.00;35.00;36.00;37.00;38.00;39.00;40.00;41.00;42.00;43.00;44.00;45.00;46.00;47.00;48.00;49.00;50.00;51.00;52.00;53.00;54.00;55.00;56.00;57.00;58.00;59.00;60.00;61.00;62.00;63.00;64.00;65.00;66.00;67.00;68.00;69.00;70.00;71.00;72.00;73.00;74.00;75.00;76.00;77.00;78.00;79.00;80.00;81.00;82.00;83.00;84.00;85.00;
		REF_OVERSCAN_FACTOR=1.00
		SCAN_CURVETYPE=CROSSPLANE_PROFILE
		SCAN_DEPTH=50.00
		SCAN_OFFAXIS_INPLANE=0.00
		SCAN_OFFAXIS_CROSSPLANE=0.00
		SCAN_ANGLE=0.00
		SCAN_DIAGONAL=NOT_DIAGONAL
		SCAN_DIRECTION=NEGATIVE
		MEAS_MEDIUM=WATER
		MEAS_PRESET=MEAS_CONTINUOUS_REFERENCE_SCAN
		MEAS_TIME=0.080
		MEAS_UNIT=A.U.
		INCLINATION_ANGLE=0.00
		PRESSURE=1013.25
		TEMPERATURE=20.00
		NORM_TEMPERATURE=20.00
		CORRECTION_FACTOR=1.0000
		EXPECTED_MAX_DOSE_RATE=3.00
		EPOM_DEPTH_SHIFT=0.2
		EPOM_MODE=SHIFT_PROTOCOL
		CORRECTIONS=SMOOTHED_CORR;CAX_CORR;SYMMETRY_CORR;INTERPOLATED_CORR;
		BEGIN_DATA
			-43.00		16.897E-03
			-42.50		16.883E-03
			-42.00		16.870E-03
			-41.50		17.280E-03
			-41.00		17.689E-03
			-40.50		17.825E-03
			-40.00		17.961E-03
			-39.50		18.309E-03
			-39.00		18.657E-03
			-38.50		19.019E-03
			-38.00		19.381E-03
			-37.50		19.825E-03
			-37.00		20.268E-03
			-36.50		20.581E-03
			-36.00		20.893E-03
			-35.50		21.212E-03
			-35.00		21.531E-03
			-34.50		22.062E-03
			-34.00		22.594E-03
			-33.50		22.889E-03
			-33.00		23.184E-03
			-32.50		23.615E-03
			-32.00		24.047E-03
			-31.50		24.989E-03
			-31.00		25.930E-03
			-30.50		26.304E-03
			-30.00		26.678E-03
			-29.50		27.343E-03
			-29.00		28.007E-03
			-28.50		28.663E-03
			-28.00		29.319E-03
			-27.50		30.378E-03
			-27.00		31.438E-03
			-26.50		32.376E-03
			-26.00		33.315E-03
			-25.50		34.411E-03
			-25.00		35.508E-03
			-24.50		37.044E-03
			-24.00		38.580E-03
			-23.50		39.790E-03
			-23.00		41.000E-03
			-22.50		42.863E-03
			-22.00		44.725E-03
			-21.50		46.836E-03
			-21.00		48.946E-03
			-20.50		51.957E-03
			-20.00		54.967E-03
			-19.50		59.075E-03
			-19.00		63.183E-03
			-18.50		68.875E-03
			-18.00		74.566E-03
			-17.50		82.079E-03
			-17.00		89.592E-03
			-16.50		101.22E-03
			-16.00		112.85E-03
			-15.50		130.28E-03
			-15.00		147.71E-03
			-14.50		177.04E-03
			-14.00		206.38E-03
			-13.50		259.08E-03
			-13.00		311.78E-03
			-12.50		407.18E-03
			-12.00		502.58E-03
			-11.50		650.14E-03
			-11.00		797.70E-03
			-10.50		992.60E-03
			-10.00		1.1875E+00
			-9.50		1.4070E+00
			-9.00		1.6265E+00
			-8.50		1.8403E+00
			-8.00		2.0540E+00
			-7.50		2.2319E+00
			-7.00		2.4099E+00
			-6.50		2.5437E+00
			-6.00		2.6774E+00
			-5.50		2.7496E+00
			-5.00		2.8217E+00
			-4.50		2.8637E+00
			-4.00		2.9058E+00
			-3.50		2.9312E+00
			-3.00		2.9566E+00
			-2.50		2.9689E+00
			-2.00		2.9811E+00
			-1.50		2.9880E+00
			-1.00		2.9949E+00
			-0.50		2.9978E+00
			0.00		3.0008E+00
			0.50		2.9978E+00
			1.00		2.9949E+00
			1.50		2.9880E+00
			2.00		2.9811E+00
			2.50		2.9689E+00
			3.00		2.9566E+00
			3.50		2.9312E+00
			4.00		2.9058E+00
			4.50		2.8637E+00
			5.00		2.8217E+00
			5.50		2.7496E+00
			6.00		2.6774E+00
			6.50		2.5437E+00
			7.00		2.4099E+00
			7.50		2.2319E+00
			8.00		2.0540E+00
			8.50		1.8403E+00
			9.00		1.6265E+00
			9.50		1.4070E+00
			10.00		1.1875E+00
			10.50		992.60E-03
			11.00		797.70E-03
			11.50		650.14E-03
			12.00		502.58E-03
			12.50		407.18E-03
			13.00		311.78E-03
			13.50		259.08E-03
			14.00		206.38E-03
			14.50		177.04E-03
			15.00		147.71E-03
			15.50		130.28E-03
			16.00		112.85E-03
			16.50		101.22E-03
			17.00		89.592E-03
			17.50		82.079E-03
			18.00		74.566E-03
			18.50		68.875E-03
			19.00		63.183E-03
			19.50		59.075E-03
			20.00		54.967E-03
			20.50		51.957E-03
			21.00		48.946E-03
			21.50		46.836E-03
			22.00		44.725E-03
			22.50		42.863E-03
			23.00		41.000E-03
			23.50		39.790E-03
			24.00		38.580E-03
			24.50		37.044E-03
			25.00		35.508E-03
			25.50		34.411E-03
			26.00		33.315E-03
			26.50		32.376E-03
			27.00		31.438E-03
			27.50		30.378E-03
			28.00		29.319E-03
			28.50		28.663E-03
			29.00		28.007E-03
			29.50		27.343E-03
			30.00		26.678E-03
			30.50		26.304E-03
			31.00		25.930E-03
			31.50		24.989E-03
			32.00		24.047E-03
			32.50		23.615E-03
			33.00		23.184E-03
			33.50		22.889E-03
			34.00		22.594E-03
			34.50		22.062E-03
			35.00		21.531E-03
			35.50		21.212E-03
			36.00		20.893E-03
			36.50		20.581E-03
			37.00		20.268E-03
			37.50		19.825E-03
			38.00		19.381E-03
			38.50		19.019E-03
			39.00		18.657E-03
			39.50		18.309E-03
			40.00		17.961E-03
			40.50		17.825E-03
			41.00		17.689E-03
			41.50		17.280E-03
			42.00		16.870E-03
			42.50		16.883E-03
			43.00		16.897E-03
		END_DATA
	END_SCAN  2
	BEGIN_SCAN  3
		TASK_NAME=tba PDD Profiles
		PROGRAM=WaterTankScans
		COMMENT=PDD + 5x X
		MEAS_DATE=08-Feb-2021 09:29:45
		LINAC=TRUEBEAMSN4791
		MODALITY=X
		ISOCENTER=1000.00
		INPLANE_AXIS=Y
		CROSSPLANE_AXIS=X
		DEPTH_AXIS=Depth
		INPLANE_AXIS_DIR=TARGET_GUN
		CROSSPLANE_AXIS_DIR=LEFT_RIGHT
		DEPTH_AXIS_DIR=UP_DOWN
		ENERGY=6.00
		NOMINAL_DMAX=15.00
		SSD=900.00
		SCD=450.00
		WEDGE_ANGLE=0.00
		FIELD_INPLANE=20.00
		FIELD_CROSSPLANE=20.00
		FIELD_TYPE=RECTANGULAR
		GANTRY=0.00
		GANTRY_UPRIGHT_POSITION=0
		GANTRY_ROTATION=CW
		COLL_ANGLE=0.00
		COLL_OFFSET_INPLANE=0.00
		COLL_OFFSET_CROSSPLANE=0.00
		SCAN_DEVICE=BeamScan
		SCAN_DEVICE_SETUP=BARA_LEFT_RIGHT
		ELECTROMETER=BeamScan
		RANGE_FIELD=LOW
		RANGE_REFERENCE=MEDIUM
		DETECTOR=THIMBLE_CHAMBER
		DETECTOR_SUBCODE=SEMIFLEX
		DETECTOR_RADIUS=2.40
		DETECTOR_NAME=PTW 31021 Semiflex 3D (1)
		DETECTOR_SN=142316
		DETECTOR_CALIBRATION=588000000.00
		DETECTOR_IS_CALIBRATED=1
		DETECTOR_REFERENCE=THIMBLE_CHAMBER
		DETECTOR_REFERENCE_SUBCODE=SEMIFLEX
		DETECTOR_REFERENCE_RADIUS=2.75
		DETECTOR_REFERENCE_NAME=PTW 31010 Semiflex (1)
		DETECTOR_REFERENCE_SN=—
		DETECTOR_REFERENCE_IS_CALIBRATED=0
		DETECTOR_REFERENCE_CALIBRATION=303000000.00
		DETECTOR_HV=400.0
		DETECTOR_REFERENCE_HV=400.0
		DETECTOR_ORIENTATION=HORIZONTAL
		FILTER=FF
		SCAN_SPEED_PROFILE=12.50
		SCAN_PROF_SPEED_DEP=DEPTH
		SCAN_SPEED_PDD=12.50
		SCAN_PDD_SPEED_DEP=ENERGY
		DETECTOR_TYPE=T31021
		REF_FIELD_DEPTH=100.00
		REF_FIELD_DEFINED=ISOCENTER
		REF_FIELD_INPLANE=100.00
		REF_FIELD_CROSSPLANE=100.00
		REF_SCAN_POSITIONS=-85.00;-84.00;-83.00;-82.00;-81.00;-80.00;-79.00;-78.00;-77.00;-76.00;-75.00;-74.00;-73.00;-72.00;-71.00;-70.00;-69.00;-68.00;-67.00;-66.00;-65.00;-64.00;-63.00;-62.00;-61.00;-60.00;-59.00;-58.00;-57.00;-56.00;-55.00;-54.00;-53.00;-52.00;-51.00;-50.00;-49.00;-48.00;-47.00;-46.00;-45.00;-44.00;-43.00;-42.00;-41.00;-40.00;-39.00;-38.00;-37.00;-36.00;-35.00;-34.00;-33.00;-32.00;-31.00;-30.00;-29.00;-28.00;-27.00;-26.00;-25.00;-24.00;-23.00;-22.00;-21.00;-20.00;-19.00;-18.00;-17.00;-16.00;-15.00;-14.00;-13.00;-12.00;-11.00;-10.00;-9.00;-8.00;-7.00;-6.00;-5.00;-4.00;-3.00;-2.00;-1.00;0.00;1.00;2.00;3.00;4.00;5.00;6.00;7.00;8.00;9.00;10.00;11.00;12.00;13.00;14.00;15.00;16.00;17.00;18.00;19.00;20.00;21.00;22.00;23.00;24.00;25.00;26.00;27.00;28.00;29.00;30.00;31.00;32.00;33.00;34.00;35.00;36.00;37.00;38.00;39.00;40.00;41.00;42.00;43.00;44.00;45.00;46.00;47.00;48.00;49.00;50.00;51.00;52.00;53.00;54.00;55.00;56.00;57.00;58.00;59.00;60.00;61.00;62.00;63.00;64.00;65.00;66.00;67.00;68.00;69.00;70.00;71.00;72.00;73.00;74.00;75.00;76.00;77.00;78.00;79.00;80.00;81.00;82.00;83.00;84.00;85.00;
		REF_OVERSCAN_FACTOR=1.00
		SCAN_CURVETYPE=CROSSPLANE_PROFILE
		SCAN_DEPTH=100.00
		SCAN_OFFAXIS_INPLANE=0.00
		SCAN_OFFAXIS_CROSSPLANE=0.00
		SCAN_ANGLE=0.00
		SCAN_DIAGONAL=NOT_DIAGONAL
		SCAN_DIRECTION=POSITIVE
		MEAS_MEDIUM=WATER
		MEAS_PRESET=MEAS_CONTINUOUS_REFERENCE_SCAN
		MEAS_TIME=0.080
		MEAS_UNIT=A.U.
		INCLINATION_ANGLE=0.00
		PRESSURE=1013.25
		TEMPERATURE=20.00
		NORM_TEMPERATURE=20.00
		CORRECTION_FACTOR=1.0000
		EXPECTED_MAX_DOSE_RATE=3.00
		EPOM_DEPTH_SHIFT=0.2
		EPOM_MODE=SHIFT_PROTOCOL
		CORRECTIONS=SMOOTHED_CORR;CAX_CORR;SYMMETRY_CORR;INTERPOLATED_CORR;
		BEGIN_DATA
			-45.00		16.847E-03
			-44.50		17.082E-03
			-44.00		17.317E-03
			-43.50		17.425E-03
			-43.00		17.533E-03
			-42.50		17.982E-03
			-42.00		18.431E-03
			-41.50		18.590E-03
			-41.00		18.748E-03
			-40.50		19.264E-03
			-40.00		19.780E-03
			-39.50		20.031E-03
			-39.00		20.281E-03
			-38.50		20.549E-03
			-38.00		20.816E-03
			-37.50		21.370E-03
			-37.00		21.923E-03
			-36.50		22.402E-03
			-36.00		22.882E-03
			-35.50		23.328E-03
			-35.00		23.774E-03
			-34.50		24.269E-03
			-34.00		24.763E-03
			-33.50		25.204E-03
			-33.00		25.646E-03
			-32.50		26.313E-03
			-32.00		26.980E-03
			-31.50		27.399E-03
			-31.00		27.817E-03
			-30.50		28.686E-03
			-30.00		29.555E-03
			-29.50		30.068E-03
			-29.00		30.582E-03
			-28.50		31.522E-03
			-28.00		32.463E-03
			-27.50		33.264E-03
			-27.00		34.066E-03
			-26.50		34.997E-03
			-26.00		35.928E-03
			-25.50		37.004E-03
			-25.00		38.080E-03
			-24.50		39.164E-03
			-24.00		40.247E-03
			-23.50		41.455E-03
			-23.00		42.662E-03
			-22.50		44.583E-03
			-22.00		46.505E-03
			-21.50		48.368E-03
			-21.00		50.231E-03
			-20.50		52.785E-03
			-20.00		55.339E-03
			-19.50		59.422E-03
			-19.00		63.505E-03
			-18.50		68.611E-03
			-18.00		73.716E-03
			-17.50		81.033E-03
			-17.00		88.350E-03
			-16.50		98.655E-03
			-16.00		108.96E-03
			-15.50		126.05E-03
			-15.00		143.13E-03
			-14.50		172.18E-03
			-14.00		201.23E-03
			-13.50		252.03E-03
			-13.00		302.82E-03
			-12.50		388.95E-03
			-12.00		475.08E-03
			-11.50		596.68E-03
			-11.00		718.27E-03
			-10.50		863.23E-03
			-10.00		1.0082E+00
			-9.50		1.1617E+00
			-9.00		1.3152E+00
			-8.50		1.4567E+00
			-8.00		1.5981E+00
			-7.50		1.7086E+00
			-7.00		1.8192E+00
			-6.50		1.8911E+00
			-6.00		1.9630E+00
			-5.50		2.0026E+00
			-5.00		2.0422E+00
			-4.50		2.0667E+00
			-4.00		2.0912E+00
			-3.50		2.1065E+00
			-3.00		2.1217E+00
			-2.50		2.1314E+00
			-2.00		2.1410E+00
			-1.50		2.1469E+00
			-1.00		2.1527E+00
			-0.50		2.1546E+00
			0.00		2.1565E+00
			0.50		2.1546E+00
			1.00		2.1527E+00
			1.50		2.1469E+00
			2.00		2.1410E+00
			2.50		2.1314E+00
			3.00		2.1217E+00
			3.50		2.1065E+00
			4.00		2.0912E+00
			4.50		2.0667E+00
			5.00		2.0422E+00
			5.50		2.0026E+00
			6.00		1.9630E+00
			6.50		1.8911E+00
			7.00		1.8192E+00
			7.50		1.7086E+00
			8.00		1.5981E+00
			8.50		1.4567E+00
			9.00		1.3152E+00
			9.50		1.1617E+00
			10.00		1.0082E+00
			10.50		863.23E-03
			11.00		718.27E-03
			11.50		596.68E-03
			12.00		475.08E-03
			12.50		388.95E-03
			13.00		302.82E-03
			13.50		252.03E-03
			14.00		201.23E-03
			14.50		172.18E-03
			15.00		143.13E-03
			15.50		126.05E-03
			16.00		108.96E-03
			16.50		98.655E-03
			17.00		88.350E-03
			17.50		81.033E-03
			18.00		73.716E-03
			18.50		68.611E-03
			19.00		63.505E-03
			19.50		59.422E-03
			20.00		55.339E-03
			20.50		52.785E-03
			21.00		50.231E-03
			21.50		48.368E-03
			22.00		46.505E-03
			22.50		44.583E-03
			23.00		42.662E-03
			23.50		41.455E-03
			24.00		40.247E-03
			24.50		39.164E-03
			25.00		38.080E-03
			25.50		37.004E-03
			26.00		35.928E-03
			26.50		34.997E-03
			27.00		34.066E-03
			27.50		33.264E-03
			28.00		32.463E-03
			28.50		31.522E-03
			29.00		30.582E-03
			29.50		30.068E-03
			30.00		29.555E-03
			30.50		28.686E-03
			31.00		27.817E-03
			31.50		27.399E-03
			32.00		26.980E-03
			32.50		26.313E-03
			33.00		25.646E-03
			33.50		25.204E-03
			34.00		24.763E-03
			34.50		24.269E-03
			35.00		23.774E-03
			35.50		23.328E-03
			36.00		22.882E-03
			36.50		22.402E-03
			37.00		21.923E-03
			37.50		21.370E-03
			38.00		20.816E-03
			38.50		20.549E-03
			39.00		20.281E-03
			39.50		20.031E-03
			40.00		19.780E-03
			40.50		19.264E-03
			41.00		18.748E-03
			41.50		18.590E-03
			42.00		18.431E-03
			42.50		17.982E-03
			43.00		17.533E-03
			43.50		17.425E-03
			44.00		17.317E-03
			44.50		17.082E-03
			45.00		16.847E-03
		END_DATA
	END_SCAN  3
	BEGIN_SCAN  4
		TASK_NAME=tba PDD Profiles
		PROGRAM=WaterTankScans
		COMMENT=PDD + 5x X
		MEAS_DATE=08-Feb-2021 09:29:56
		LINAC=TRUEBEAMSN4791
		MODALITY=X
		ISOCENTER=1000.00
		INPLANE_AXIS=Y
		CROSSPLANE_AXIS=X
		DEPTH_AXIS=Depth
		INPLANE_AXIS_DIR=TARGET_GUN
		CROSSPLANE_AXIS_DIR=LEFT_RIGHT
		DEPTH_AXIS_DIR=UP_DOWN
		ENERGY=6.00
		NOMINAL_DMAX=15.00
		SSD=900.00
		SCD=450.00
		WEDGE_ANGLE=0.00
		FIELD_INPLANE=20.00
		FIELD_CROSSPLANE=20.00
		FIELD_TYPE=RECTANGULAR
		GANTRY=0.00
		GANTRY_UPRIGHT_POSITION=0
		GANTRY_ROTATION=CW
		COLL_ANGLE=0.00
		COLL_OFFSET_INPLANE=0.00
		COLL_OFFSET_CROSSPLANE=0.00
		SCAN_DEVICE=BeamScan
		SCAN_DEVICE_SETUP=BARA_LEFT_RIGHT
		ELECTROMETER=BeamScan
		RANGE_FIELD=LOW
		RANGE_REFERENCE=MEDIUM
		DETECTOR=THIMBLE_CHAMBER
		DETECTOR_SUBCODE=SEMIFLEX
		DETECTOR_RADIUS=2.40
		DETECTOR_NAME=PTW 31021 Semiflex 3D (1)
		DETECTOR_SN=142316
		DETECTOR_CALIBRATION=588000000.00
		DETECTOR_IS_CALIBRATED=1
		DETECTOR_REFERENCE=THIMBLE_CHAMBER
		DETECTOR_REFERENCE_SUBCODE=SEMIFLEX
		DETECTOR_REFERENCE_RADIUS=2.75
		DETECTOR_REFERENCE_NAME=PTW 31010 Semiflex (1)
		DETECTOR_REFERENCE_SN=—
		DETECTOR_REFERENCE_IS_CALIBRATED=0
		DETECTOR_REFERENCE_CALIBRATION=303000000.00
		DETECTOR_HV=400.0
		DETECTOR_REFERENCE_HV=400.0
		DETECTOR_ORIENTATION=HORIZONTAL
		FILTER=FF
		SCAN_SPEED_PROFILE=10.00
		SCAN_PROF_SPEED_DEP=DEPTH
		SCAN_SPEED_PDD=12.50
		SCAN_PDD_SPEED_DEP=ENERGY
		DETECTOR_TYPE=T31021
		REF_FIELD_DEPTH=100.00
		REF_FIELD_DEFINED=ISOCENTER
		REF_FIELD_INPLANE=100.00
		REF_FIELD_CROSSPLANE=100.00
		REF_SCAN_POSITIONS=-85.00;-84.00;-83.00;-82.00;-81.00;-80.00;-79.00;-78.00;-77.00;-76.00;-75.00;-74.00;-73.00;-72.00;-71.00;-70.00;-69.00;-68.00;-67.00;-66.00;-65.00;-64.00;-63.00;-62.00;-61.00;-60.00;-59.00;-58.00;-57.00;-56.00;-55.00;-54.00;-53.00;-52.00;-51.00;-50.00;-49.00;-48.00;-47.00;-46.00;-45.00;-44.00;-43.00;-42.00;-41.00;-40.00;-39.00;-38.00;-37.00;-36.00;-35.00;-34.00;-33.00;-32.00;-31.00;-30.00;-29.00;-28.00;-27.00;-26.00;-25.00;-24.00;-23.00;-22.00;-21.00;-20.00;-19.00;-18.00;-17.00;-16.00;-15.00;-14.00;-13.00;-12.00;-11.00;-10.00;-9.00;-8.00;-7.00;-6.00;-5.00;-4.00;-3.00;-2.00;-1.00;0.00;1.00;2.00;3.00;4.00;5.00;6.00;7.00;8.00;9.00;10.00;11.00;12.00;13.00;14.00;15.00;16.00;17.00;18.00;19.00;20.00;21.00;22.00;23.00;24.00;25.00;26.00;27.00;28.00;29.00;30.00;31.00;32.00;33.00;34.00;35.00;36.00;37.00;38.00;39.00;40.00;41.00;42.00;43.00;44.00;45.00;46.00;47.00;48.00;49.00;50.00;51.00;52.00;53.00;54.00;55.00;56.00;57.00;58.00;59.00;60.00;61.00;62.00;63.00;64.00;65.00;66.00;67.00;68.00;69.00;70.00;71.00;72.00;73.00;74.00;75.00;76.00;77.00;78.00;79.00;80.00;81.00;82.00;83.00;84.00;85.00;
		REF_OVERSCAN_FACTOR=1.00
		SCAN_CURVETYPE=CROSSPLANE_PROFILE
		SCAN_DEPTH=200.00
		SCAN_OFFAXIS_INPLANE=0.00
		SCAN_OFFAXIS_CROSSPLANE=0.00
		SCAN_ANGLE=0.00
		SCAN_DIAGONAL=NOT_DIAGONAL
		SCAN_DIRECTION=NEGATIVE
		MEAS_MEDIUM=WATER
		MEAS_PRESET=MEAS_CONTINUOUS_REFERENCE_SCAN
		MEAS_TIME=0.100
		MEAS_UNIT=A.U.
		INCLINATION_ANGLE=0.00
		PRESSURE=1013.25
		TEMPERATURE=20.00
		NORM_TEMPERATURE=20.00
		CORRECTION_FACTOR=1.0000
		EXPECTED_MAX_DOSE_RATE=3.00
		EPOM_DEPTH_SHIFT=0.2
		EPOM_MODE=SHIFT_PROTOCOL
		CORRECTIONS=SMOOTHED_CORR;CAX_CORR;SYMMETRY_CORR;INTERPOLATED_CORR;
		BEGIN_DATA
			-50.00		12.639E-03
			-49.50		12.723E-03
			-49.00		12.808E-03
			-48.50		12.769E-03
			-48.00		12.730E-03
			-47.50		13.062E-03
			-47.00		13.394E-03
			-46.50		13.590E-03
			-46.00		13.787E-03
			-45.50		13.974E-03
			-45.00		14.160E-03
			-44.50		14.339E-03
			-44.00		14.518E-03
			-43.50		14.767E-03
			-43.00		15.016E-03
			-42.50		15.193E-03
			-42.00		15.370E-03
			-41.50		15.840E-03
			-41.00		16.310E-03
			-40.50		16.506E-03
			-40.00		16.702E-03
			-39.50		16.811E-03
			-39.00		16.920E-03
			-38.50		17.185E-03
			-38.00		17.450E-03
			-37.50		17.722E-03
			-37.00		17.993E-03
			-36.50		18.281E-03
			-36.00		18.569E-03
			-35.50		18.938E-03
			-35.00		19.306E-03
			-34.50		19.606E-03
			-34.00		19.906E-03
			-33.50		20.189E-03
			-33.00		20.472E-03
			-32.50		20.951E-03
			-32.00		21.430E-03
			-31.50		21.907E-03
			-31.00		22.384E-03
			-30.50		22.795E-03
			-30.00		23.207E-03
			-29.50		23.607E-03
			-29.00		24.008E-03
			-28.50		24.560E-03
			-28.00		25.112E-03
			-27.50		25.603E-03
			-27.00		26.095E-03
			-26.50		26.709E-03
			-26.00		27.323E-03
			-25.50		27.829E-03
			-25.00		28.336E-03
			-24.50		29.225E-03
			-24.00		30.113E-03
			-23.50		30.871E-03
			-23.00		31.629E-03
			-22.50		32.813E-03
			-22.00		33.997E-03
			-21.50		35.793E-03
			-21.00		37.590E-03
			-20.50		39.881E-03
			-20.00		42.172E-03
			-19.50		44.995E-03
			-19.00		47.818E-03
			-18.50		52.194E-03
			-18.00		56.569E-03
			-17.50		62.931E-03
			-17.00		69.293E-03
			-16.50		79.304E-03
			-16.00		89.314E-03
			-15.50		105.94E-03
			-15.00		122.56E-03
			-14.50		150.57E-03
			-14.00		178.58E-03
			-13.50		222.43E-03
			-13.00		266.29E-03
			-12.50		326.35E-03
			-12.00		386.40E-03
			-11.50		459.02E-03
			-11.00		531.64E-03
			-10.50		608.16E-03
			-10.00		684.67E-03
			-9.50		754.15E-03
			-9.00		823.64E-03
			-8.50		880.11E-03
			-8.00		936.58E-03
			-7.50		976.24E-03
			-7.00		1.0159E+00
			-6.50		1.0398E+00
			-6.00		1.0638E+00
			-5.50		1.0783E+00
			-5.00		1.0928E+00
			-4.50		1.1020E+00
			-4.00		1.1112E+00
			-3.50		1.1163E+00
			-3.00		1.1215E+00
			-2.50		1.1249E+00
			-2.00		1.1284E+00
			-1.50		1.1309E+00
			-1.00		1.1335E+00
			-0.50		1.1344E+00
			0.00		1.1353E+00
			0.50		1.1344E+00
			1.00		1.1335E+00
			1.50		1.1309E+00
			2.00		1.1284E+00
			2.50		1.1249E+00
			3.00		1.1215E+00
			3.50		1.1163E+00
			4.00		1.1112E+00
			4.50		1.1020E+00
			5.00		1.0928E+00
			5.50		1.0783E+00
			6.00		1.0638E+00
			6.50		1.0398E+00
			7.00		1.0159E+00
			7.50		976.24E-03
			8.00		936.58E-03
			8.50		880.11E-03
			9.00		823.64E-03
			9.50		754.15E-03
			10.00		684.67E-03
			10.50		608.16E-03
			11.00		531.64E-03
			11.50		459.02E-03
			12.00		386.40E-03
			12.50		326.35E-03
			13.00		266.29E-03
			13.50		222.43E-03
			14.00		178.58E-03
			14.50		150.57E-03
			15.00		122.56E-03
			15.50		105.94E-03
			16.00		89.314E-03
			16.50		79.304E-03
			17.00		69.293E-03
			17.50		62.931E-03
			18.00		56.569E-03
			18.50		52.194E-03
			19.00		47.818E-03
			19.50		44.995E-03
			20.00		42.172E-03
			20.50		39.881E-03
			21.00		37.590E-03
			21.50		35.793E-03
			22.00		33.997E-03
			22.50		32.813E-03
			23.00		31.629E-03
			23.50		30.871E-03
			24.00		30.113E-03
			24.50		29.225E-03
			25.00		28.336E-03
			25.50		27.829E-03
			26.00		27.323E-03
			26.50		26.709E-03
			27.00		26.095E-03
			27.50		25.603E-03
			28.00		25.112E-03
			28.50		24.560E-03
			29.00		24.008E-03
			29.50		23.607E-03
			30.00		23.207E-03
			30.50		22.795E-03
			31.00		22.384E-03
			31.50		21.907E-03
			32.00		21.430E-03
			32.50		20.951E-03
			33.00		20.472E-03
			33.50		20.189E-03
			34.00		19.906E-03
			34.50		19.606E-03
			35.00		19.306E-03
			35.50		18.938E-03
			36.00		18.569E-03
			36.50		18.281E-03
			37.00		17.993E-03
			37.50		17.722E-03
			38.00		17.450E-03
			38.50		17.185E-03
			39.00		16.920E-03
			39.50		16.811E-03
			40.00		16.702E-03
			40.50		16.506E-03
			41.00		16.310E-03
			41.50		15.840E-03
			42.00		15.370E-03
			42.50		15.193E-03
			43.00		15.016E-03
			43.50		14.767E-03
			44.00		14.518E-03
			44.50		14.339E-03
			45.00		14.160E-03
			45.50		13.974E-03
			46.00		13.787E-03
			46.50		13.590E-03
			47.00		13.394E-03
			47.50		13.062E-03
			48.00		12.730E-03
			48.50		12.769E-03
			49.00		12.808E-03
			49.50		12.723E-03
			50.00		12.639E-03
		END_DATA
	END_SCAN  4
	BEGIN_SCAN  5
		TASK_NAME=tba PDD Profiles
		PROGRAM=WaterTankScans
		COMMENT=PDD + 5x X
		MEAS_DATE=08-Feb-2021 09:30:12
		LINAC=TRUEBEAMSN4791
		MODALITY=X
		ISOCENTER=1000.00
		INPLANE_AXIS=Y
		CROSSPLANE_AXIS=X
		DEPTH_AXIS=Depth
		INPLANE_AXIS_DIR=TARGET_GUN
		CROSSPLANE_AXIS_DIR=LEFT_RIGHT
		DEPTH_AXIS_DIR=UP_DOWN
		ENERGY=6.00
		NOMINAL_DMAX=15.00
		SSD=900.00
		SCD=450.00
		WEDGE_ANGLE=0.00
		FIELD_INPLANE=20.00
		FIELD_CROSSPLANE=20.00
		FIELD_TYPE=RECTANGULAR
		GANTRY=0.00
		GANTRY_UPRIGHT_POSITION=0
		GANTRY_ROTATION=CW
		COLL_ANGLE=0.00
		COLL_OFFSET_INPLANE=0.00
		COLL_OFFSET_CROSSPLANE=0.00
		SCAN_DEVICE=BeamScan
		SCAN_DEVICE_SETUP=BARA_LEFT_RIGHT
		ELECTROMETER=BeamScan
		RANGE_FIELD=LOW
		RANGE_REFERENCE=MEDIUM
		DETECTOR=THIMBLE_CHAMBER
		DETECTOR_SUBCODE=SEMIFLEX
		DETECTOR_RADIUS=2.40
		DETECTOR_NAME=PTW 31021 Semiflex 3D (1)
		DETECTOR_SN=142316
		DETECTOR_CALIBRATION=588000000.00
		DETECTOR_IS_CALIBRATED=1
		DETECTOR_REFERENCE=THIMBLE_CHAMBER
		DETECTOR_REFERENCE_SUBCODE=SEMIFLEX
		DETECTOR_REFERENCE_RADIUS=2.75
		DETECTOR_REFERENCE_NAME=PTW 31010 Semiflex (1)
		DETECTOR_REFERENCE_SN=—
		DETECTOR_REFERENCE_IS_CALIBRATED=0
		DETECTOR_REFERENCE_CALIBRATION=303000000.00
		DETECTOR_HV=400.0
		DETECTOR_REFERENCE_HV=400.0
		DETECTOR_ORIENTATION=HORIZONTAL
		FILTER=FF
		SCAN_SPEED_PROFILE=10.00
		SCAN_PROF_SPEED_DEP=DEPTH
		SCAN_SPEED_PDD=12.50
		SCAN_PDD_SPEED_DEP=ENERGY
		DETECTOR_TYPE=T31021
		REF_FIELD_DEPTH=100.00
		REF_FIELD_DEFINED=ISOCENTER
		REF_FIELD_INPLANE=100.00
		REF_FIELD_CROSSPLANE=100.00
		REF_SCAN_POSITIONS=-85.00;-84.00;-83.00;-82.00;-81.00;-80.00;-79.00;-78.00;-77.00;-76.00;-75.00;-74.00;-73.00;-72.00;-71.00;-70.00;-69.00;-68.00;-67.00;-66.00;-65.00;-64.00;-63.00;-62.00;-61.00;-60.00;-59.00;-58.00;-57.00;-56.00;-55.00;-54.00;-53.00;-52.00;-51.00;-50.00;-49.00;-48.00;-47.00;-46.00;-45.00;-44.00;-43.00;-42.00;-41.00;-40.00;-39.00;-38.00;-37.00;-36.00;-35.00;-34.00;-33.00;-32.00;-31.00;-30.00;-29.00;-28.00;-27.00;-26.00;-25.00;-24.00;-23.00;-22.00;-21.00;-20.00;-19.00;-18.00;-17.00;-16.00;-15.00;-14.00;-13.00;-12.00;-11.00;-10.00;-9.00;-8.00;-7.00;-6.00;-5.00;-4.00;-3.00;-2.00;-1.00;0.00;1.00;2.00;3.00;4.00;5.00;6.00;7.00;8.00;9.00;10.00;11.00;12.00;13.00;14.00;15.00;16.00;17.00;18.00;19.00;20.00;21.00;22.00;23.00;24.00;25.00;26.00;27.00;28.00;29.00;30.00;31.00;32.00;33.00;34.00;35.00;36.00;37.00;38.00;39.00;40.00;41.00;42.00;43.00;44.00;45.00;46.00;47.00;48.00;49.00;50.00;51.00;52.00;53.00;54.00;55.00;56.00;57.00;58.00;59.00;60.00;61.00;62.00;63.00;64.00;65.00;66.00;67.00;68.00;69.00;70.00;71.00;72.00;73.00;74.00;75.00;76.00;77.00;78.00;79.00;80.00;81.00;82.00;83.00;84.00;85.00;
		REF_OVERSCAN_FACTOR=1.00
		SCAN_CURVETYPE=CROSSPLANE_PROFILE
		SCAN_DEPTH=300.00
		SCAN_OFFAXIS_INPLANE=0.00
		SCAN_OFFAXIS_CROSSPLANE=0.00
		SCAN_ANGLE=0.00
		SCAN_DIAGONAL=NOT_DIAGONAL
		SCAN_DIRECTION=POSITIVE
		MEAS_MEDIUM=WATER
		MEAS_PRESET=MEAS_CONTINUOUS_REFERENCE_SCAN
		MEAS_TIME=0.100
		MEAS_UNIT=A.U.
		INCLINATION_ANGLE=0.00
		PRESSURE=1013.25
		TEMPERATURE=20.00
		NORM_TEMPERATURE=20.00
		CORRECTION_FACTOR=1.0000
		EXPECTED_MAX_DOSE_RATE=3.00
		EPOM_DEPTH_SHIFT=0.2
		EPOM_MODE=SHIFT_PROTOCOL
		CORRECTIONS=SMOOTHED_CORR;CAX_CORR;SYMMETRY_CORR;INTERPOLATED_CORR;
		BEGIN_DATA
			-54.00		8.3179E-03
			-53.50		8.3157E-03
			-53.00		8.3135E-03
			-52.50		8.4352E-03
			-52.00		8.5569E-03
			-51.50		8.7093E-03
			-51.00		8.8616E-03
			-50.50		8.8827E-03
			-50.00		8.9038E-03
			-49.50		8.9861E-03
			-49.00		9.0684E-03
			-48.50		9.2542E-03
			-48.00		9.4401E-03
			-47.50		9.6023E-03
			-47.00		9.7644E-03
			-46.50		9.8373E-03
			-46.00		9.9102E-03
			-45.50		10.021E-03
			-45.00		10.132E-03
			-44.50		10.166E-03
			-44.00		10.200E-03
			-43.50		10.333E-03
			-43.00		10.465E-03
			-42.50		10.776E-03
			-42.00		11.087E-03
			-41.50		11.178E-03
			-41.00		11.269E-03
			-40.50		11.347E-03
			-40.00		11.424E-03
			-39.50		11.623E-03
			-39.00		11.823E-03
			-38.50		12.006E-03
			-38.00		12.188E-03
			-37.50		12.285E-03
			-37.00		12.382E-03
			-36.50		12.564E-03
			-36.00		12.747E-03
			-35.50		13.006E-03
			-35.00		13.264E-03
			-34.50		13.503E-03
			-34.00		13.741E-03
			-33.50		13.965E-03
			-33.00		14.190E-03
			-32.50		14.407E-03
			-32.00		14.624E-03
			-31.50		14.856E-03
			-31.00		15.088E-03
			-30.50		15.410E-03
			-30.00		15.733E-03
			-29.50		16.023E-03
			-29.00		16.313E-03
			-28.50		16.566E-03
			-28.00		16.819E-03
			-27.50		17.185E-03
			-27.00		17.552E-03
			-26.50		17.986E-03
			-26.00		18.421E-03
			-25.50		18.967E-03
			-25.00		19.513E-03
			-24.50		19.976E-03
			-24.00		20.439E-03
			-23.50		21.071E-03
			-23.00		21.703E-03
			-22.50		22.650E-03
			-22.00		23.598E-03
			-21.50		24.889E-03
			-21.00		26.181E-03
			-20.50		28.017E-03
			-20.00		29.854E-03
			-19.50		32.428E-03
			-19.00		35.003E-03
			-18.50		38.896E-03
			-18.00		42.789E-03
			-17.50		48.730E-03
			-17.00		54.671E-03
			-16.50		64.232E-03
			-16.00		73.792E-03
			-15.50		89.401E-03
			-15.00		105.01E-03
			-14.50		128.66E-03
			-14.00		152.31E-03
			-13.50		183.79E-03
			-13.00		215.27E-03
			-12.50		252.69E-03
			-12.00		290.11E-03
			-11.50		329.15E-03
			-11.00		368.19E-03
			-10.50		404.39E-03
			-10.00		440.59E-03
			-9.50		470.35E-03
			-9.00		500.12E-03
			-8.50		522.17E-03
			-8.00		544.21E-03
			-7.50		558.85E-03
			-7.00		573.49E-03
			-6.50		582.31E-03
			-6.00		591.14E-03
			-5.50		596.37E-03
			-5.00		601.60E-03
			-4.50		604.86E-03
			-4.00		608.12E-03
			-3.50		610.49E-03
			-3.00		612.86E-03
			-2.50		614.49E-03
			-2.00		616.12E-03
			-1.50		617.05E-03
			-1.00		617.99E-03
			-0.50		618.30E-03
			0.00		618.60E-03
			0.50		618.30E-03
			1.00		617.99E-03
			1.50		617.05E-03
			2.00		616.12E-03
			2.50		614.49E-03
			3.00		612.86E-03
			3.50		610.49E-03
			4.00		608.12E-03
			4.50		604.86E-03
			5.00		601.60E-03
			5.50		596.37E-03
			6.00		591.14E-03
			6.50		582.31E-03
			7.00		573.49E-03
			7.50		558.85E-03
			8.00		544.21E-03
			8.50		522.17E-03
			9.00		500.12E-03
			9.50		470.35E-03
			10.00		440.59E-03
			10.50		404.39E-03
			11.00		368.19E-03
			11.50		329.15E-03
			12.00		290.11E-03
			12.50		252.69E-03
			13.00		215.27E-03
			13.50		183.79E-03
			14.00		152.31E-03
			14.50		128.66E-03
			15.00		105.01E-03
			15.50		89.401E-03
			16.00		73.792E-03
			16.50		64.232E-03
			17.00		54.671E-03
			17.50		48.730E-03
			18.00		42.789E-03
			18.50		38.896E-03
			19.00		35.003E-03
			19.50		32.428E-03
			20.00		29.854E-03
			20.50		28.017E-03
			21.00		26.181E-03
			21.50		24.889E-03
			22.00		23.598E-03
			22.50		22.650E-03
			23.00		21.703E-03
			23.50		21.071E-03
			24.00		20.439E-03
			24.50		19.976E-03
			25.00		19.513E-03
			25.50		18.967E-03
			26.00		18.421E-03
			26.50		17.986E-03
			27.00		17.552E-03
			27.50		17.185E-03
			28.00		16.819E-03
			28.50		16.566E-03
			29.00		16.313E-03
			29.50		16.023E-03
			30.00		15.733E-03
			30.50		15.410E-03
			31.00		15.088E-03
			31.50		14.856E-03
			32.00		14.624E-03
			32.50		14.407E-03
			33.00		14.190E-03
			33.50		13.965E-03
			34.00		13.741E-03
			34.50		13.503E-03
			35.00		13.264E-03
			35.50		13.006E-03
			36.00		12.747E-03
			36.50		12.564E-03
			37.00		12.382E-03
			37.50		12.285E-03
			38.00		12.188E-03
			38.50		12.006E-03
			39.00		11.823E-03
			39.50		11.623E-03
			40.00		11.424E-03
			40.50		11.347E-03
			41.00		11.269E-03
			41.50		11.178E-03
			42.00		11.087E-03
			42.50		10.776E-03
			43.00		10.465E-03
			43.50		10.333E-03
			44.00		10.200E-03
			44.50		10.166E-03
			45.00		10.132E-03
			45.50		10.021E-03
			46.00		9.9102E-03
			46.50		9.8373E-03
			47.00		9.7644E-03
			47.50		9.6023E-03
			48.00		9.4401E-03
			48.50		9.2542E-03
			49.00		9.0684E-03
			49.50		8.9861E-03
			50.00		8.9038E-03
			50.50		8.8827E-03
			51.00		8.8616E-03
			51.50		8.7093E-03
			52.00		8.5569E-03
			52.50		8.4352E-03
			53.00		8.3135E-03
			53.50		8.3157E-03
			54.00		8.3179E-03
		END_DATA
	END_SCAN  5
END_SCAN_DATA
