BEGIN_SCAN_DATA
	FORMAT=CC-Export V1.9                  
	FILE_CREATION_DATE=26-Jul-2022 10:31:16
	LAST_MODIFIED=26-Jul-2022 10:31:16
	BEGIN_SCAN  1
		TASK_NAME=tba PDD Profiles
		PROGRAM=WaterTankScans
		COMMENT=PDD + 5x X
		MEAS_DATE=08-Feb-2021 09:33:53
		LINAC=TRUEBEAMSN4791
		MODALITY=X
		ISOCENTER=1000.00
		INPLANE_AXIS=Y
		CROSSPLANE_AXIS=X
		DEPTH_AXIS=Depth
		INPLANE_AXIS_DIR=TARGET_GUN
		CROSSPLANE_AXIS_DIR=LEFT_RIGHT
		DEPTH_AXIS_DIR=UP_DOWN
		ENERGY=6.00
		NOMINAL_DMAX=15.00
		SSD=900.00
		SCD=450.00
		WEDGE_ANGLE=0.00
		FIELD_INPLANE=30.00
		FIELD_CROSSPLANE=30.00
		FIELD_TYPE=RECTANGULAR
		GANTRY=0.00
		GANTRY_UPRIGHT_POSITION=0
		GANTRY_ROTATION=CW
		COLL_ANGLE=0.00
		COLL_OFFSET_INPLANE=0.00
		COLL_OFFSET_CROSSPLANE=0.00
		SCAN_DEVICE=BeamScan
		SCAN_DEVICE_SETUP=BARA_LEFT_RIGHT
		ELECTROMETER=BeamScan
		RANGE_FIELD=LOW
		RANGE_REFERENCE=MEDIUM
		DETECTOR=THIMBLE_CHAMBER
		DETECTOR_SUBCODE=SEMIFLEX
		DETECTOR_RADIUS=2.40
		DETECTOR_NAME=PTW 31021 Semiflex 3D (1)
		DETECTOR_SN=142316
		DETECTOR_CALIBRATION=588000000.00
		DETECTOR_IS_CALIBRATED=1
		DETECTOR_REFERENCE=THIMBLE_CHAMBER
		DETECTOR_REFERENCE_SUBCODE=SEMIFLEX
		DETECTOR_REFERENCE_RADIUS=2.75
		DETECTOR_REFERENCE_NAME=PTW 31010 Semiflex (1)
		DETECTOR_REFERENCE_SN=ÃƒÆ’Ã‚Â¢ÃƒÂ¢Ã¢â‚¬Å¡Ã‚Â¬ÃƒÂ¢Ã¢â€šÂ¬
		DETECTOR_REFERENCE_IS_CALIBRATED=0
		DETECTOR_REFERENCE_CALIBRATION=303000000.00
		DETECTOR_HV=400.0
		DETECTOR_REFERENCE_HV=400.0
		DETECTOR_ORIENTATION=HORIZONTAL
		FILTER=FF
		SCAN_SPEED_PROFILE=12.50
		SCAN_PROF_SPEED_DEP=DEPTH
		SCAN_SPEED_PDD=12.50
		SCAN_PDD_SPEED_DEP=ENERGY
		DETECTOR_TYPE=T31021
		REF_FIELD_DEPTH=100.00
		REF_FIELD_DEFINED=ISOCENTER
		REF_FIELD_INPLANE=100.00
		REF_FIELD_CROSSPLANE=100.00
		REF_SCAN_POSITIONS=-85.00;-84.00;-83.00;-82.00;-81.00;-80.00;-79.00;-78.00;-77.00;-76.00;-75.00;-74.00;-73.00;-72.00;-71.00;-70.00;-69.00;-68.00;-67.00;-66.00;-65.00;-64.00;-63.00;-62.00;-61.00;-60.00;-59.00;-58.00;-57.00;-56.00;-55.00;-54.00;-53.00;-52.00;-51.00;-50.00;-49.00;-48.00;-47.00;-46.00;-45.00;-44.00;-43.00;-42.00;-41.00;-40.00;-39.00;-38.00;-37.00;-36.00;-35.00;-34.00;-33.00;-32.00;-31.00;-30.00;-29.00;-28.00;-27.00;-26.00;-25.00;-24.00;-23.00;-22.00;-21.00;-20.00;-19.00;-18.00;-17.00;-16.00;-15.00;-14.00;-13.00;-12.00;-11.00;-10.00;-9.00;-8.00;-7.00;-6.00;-5.00;-4.00;-3.00;-2.00;-1.00;0.00;1.00;2.00;3.00;4.00;5.00;6.00;7.00;8.00;9.00;10.00;11.00;12.00;13.00;14.00;15.00;16.00;17.00;18.00;19.00;20.00;21.00;22.00;23.00;24.00;25.00;26.00;27.00;28.00;29.00;30.00;31.00;32.00;33.00;34.00;35.00;36.00;37.00;38.00;39.00;40.00;41.00;42.00;43.00;44.00;45.00;46.00;47.00;48.00;49.00;50.00;51.00;52.00;53.00;54.00;55.00;56.00;57.00;58.00;59.00;60.00;61.00;62.00;63.00;64.00;65.00;66.00;67.00;68.00;69.00;70.00;71.00;72.00;73.00;74.00;75.00;76.00;77.00;78.00;79.00;80.00;81.00;82.00;83.00;84.00;85.00;
		REF_OVERSCAN_FACTOR=1.00
		SCAN_CURVETYPE=CROSSPLANE_PROFILE
		SCAN_DEPTH=15.00
		SCAN_OFFAXIS_INPLANE=0.00
		SCAN_OFFAXIS_CROSSPLANE=0.00
		SCAN_ANGLE=0.00
		SCAN_DIAGONAL=NOT_DIAGONAL
		SCAN_DIRECTION=POSITIVE
		MEAS_MEDIUM=WATER
		MEAS_PRESET=MEAS_CONTINUOUS_REFERENCE_SCAN
		MEAS_TIME=0.080
		MEAS_UNIT=A.U.
		INCLINATION_ANGLE=0.00
		PRESSURE=1013.25
		TEMPERATURE=20.00
		NORM_TEMPERATURE=20.00
		CORRECTION_FACTOR=1.0000
		EXPECTED_MAX_DOSE_RATE=3.00
		EPOM_DEPTH_SHIFT=0.2
		EPOM_MODE=SHIFT_PROTOCOL
		CORRECTIONS=SMOOTHED_CORR;CAX_CORR;SYMMETRY_CORR;INTERPOLATED_CORR;
		BEGIN_DATA
			-46.00		16.646E-03
			-45.50		16.860E-03
			-45.00		17.075E-03
			-44.50		17.283E-03
			-44.00		17.490E-03
			-43.50		17.743E-03
			-43.00		17.997E-03
			-42.50		18.218E-03
			-42.00		18.438E-03
			-41.50		18.794E-03
			-41.00		19.150E-03
			-40.50		19.477E-03
			-40.00		19.805E-03
			-39.50		20.048E-03
			-39.00		20.291E-03
			-38.50		20.716E-03
			-38.00		21.141E-03
			-37.50		21.608E-03
			-37.00		22.076E-03
			-36.50		22.488E-03
			-36.00		22.900E-03
			-35.50		23.399E-03
			-35.00		23.898E-03
			-34.50		24.556E-03
			-34.00		25.213E-03
			-33.50		25.803E-03
			-33.00		26.394E-03
			-32.50		27.056E-03
			-32.00		27.717E-03
			-31.50		28.453E-03
			-31.00		29.190E-03
			-30.50		30.082E-03
			-30.00		30.975E-03
			-29.50		31.860E-03
			-29.00		32.745E-03
			-28.50		33.491E-03
			-28.00		34.237E-03
			-27.50		35.484E-03
			-27.00		36.731E-03
			-26.50		38.174E-03
			-26.00		39.616E-03
			-25.50		41.525E-03
			-25.00		43.435E-03
			-24.50		46.242E-03
			-24.00		49.049E-03
			-23.50		52.555E-03
			-23.00		56.061E-03
			-22.50		60.893E-03
			-22.00		65.725E-03
			-21.50		72.429E-03
			-21.00		79.133E-03
			-20.50		89.781E-03
			-20.00		100.43E-03
			-19.50		117.20E-03
			-19.00		133.97E-03
			-18.50		163.19E-03
			-18.00		192.41E-03
			-17.50		246.88E-03
			-17.00		301.34E-03
			-16.50		401.53E-03
			-16.00		501.71E-03
			-15.50		652.85E-03
			-15.00		803.98E-03
			-14.50		994.29E-03
			-14.00		1.1846E+00
			-13.50		1.3900E+00
			-13.00		1.5955E+00
			-12.50		1.7863E+00
			-12.00		1.9771E+00
			-11.50		2.1337E+00
			-11.00		2.2902E+00
			-10.50		2.3952E+00
			-10.00		2.5003E+00
			-9.50		2.5601E+00
			-9.00		2.6198E+00
			-8.50		2.6490E+00
			-8.00		2.6781E+00
			-7.50		2.6937E+00
			-7.00		2.7092E+00
			-6.50		2.7188E+00
			-6.00		2.7284E+00
			-5.50		2.7341E+00
			-5.00		2.7399E+00
			-4.50		2.7434E+00
			-4.00		2.7469E+00
			-3.50		2.7492E+00
			-3.00		2.7515E+00
			-2.50		2.7533E+00
			-2.00		2.7552E+00
			-1.50		2.7565E+00
			-1.00		2.7579E+00
			-0.50		2.7583E+00
			0.00		2.7588E+00
			0.50		2.7583E+00
			1.00		2.7579E+00
			1.50		2.7565E+00
			2.00		2.7552E+00
			2.50		2.7533E+00
			3.00		2.7515E+00
			3.50		2.7492E+00
			4.00		2.7469E+00
			4.50		2.7434E+00
			5.00		2.7399E+00
			5.50		2.7341E+00
			6.00		2.7284E+00
			6.50		2.7188E+00
			7.00		2.7092E+00
			7.50		2.6937E+00
			8.00		2.6781E+00
			8.50		2.6490E+00
			9.00		2.6198E+00
			9.50		2.5601E+00
			10.00		2.5003E+00
			10.50		2.3952E+00
			11.00		2.2902E+00
			11.50		2.1337E+00
			12.00		1.9771E+00
			12.50		1.7863E+00
			13.00		1.5955E+00
			13.50		1.3900E+00
			14.00		1.1846E+00
			14.50		994.29E-03
			15.00		803.98E-03
			15.50		652.85E-03
			16.00		501.71E-03
			16.50		401.53E-03
			17.00		301.34E-03
			17.50		246.88E-03
			18.00		192.41E-03
			18.50		163.19E-03
			19.00		133.97E-03
			19.50		117.20E-03
			20.00		100.43E-03
			20.50		89.781E-03
			21.00		79.133E-03
			21.50		72.429E-03
			22.00		65.725E-03
			22.50		60.893E-03
			23.00		56.061E-03
			23.50		52.555E-03
			24.00		49.049E-03
			24.50		46.242E-03
			25.00		43.435E-03
			25.50		41.525E-03
			26.00		39.616E-03
			26.50		38.174E-03
			27.00		36.731E-03
			27.50		35.484E-03
			28.00		34.237E-03
			28.50		33.491E-03
			29.00		32.745E-03
			29.50		31.860E-03
			30.00		30.975E-03
			30.50		30.082E-03
			31.00		29.190E-03
			31.50		28.453E-03
			32.00		27.717E-03
			32.50		27.056E-03
			33.00		26.394E-03
			33.50		25.803E-03
			34.00		25.213E-03
			34.50		24.556E-03
			35.00		23.898E-03
			35.50		23.399E-03
			36.00		22.900E-03
			36.50		22.488E-03
			37.00		22.076E-03
			37.50		21.608E-03
			38.00		21.141E-03
			38.50		20.716E-03
			39.00		20.291E-03
			39.50		20.048E-03
			40.00		19.805E-03
			40.50		19.477E-03
			41.00		19.150E-03
			41.50		18.794E-03
			42.00		18.438E-03
			42.50		18.218E-03
			43.00		17.997E-03
			43.50		17.743E-03
			44.00		17.490E-03
			44.50		17.283E-03
			45.00		17.075E-03
			45.50		16.860E-03
			46.00		16.646E-03
		END_DATA
	END_SCAN  1
	BEGIN_SCAN  2
		TASK_NAME=tba PDD Profiles
		PROGRAM=WaterTankScans
		COMMENT=PDD + 5x X
		MEAS_DATE=08-Feb-2021 09:34:05
		LINAC=TRUEBEAMSN4791
		MODALITY=X
		ISOCENTER=1000.00
		INPLANE_AXIS=Y
		CROSSPLANE_AXIS=X
		DEPTH_AXIS=Depth
		INPLANE_AXIS_DIR=TARGET_GUN
		CROSSPLANE_AXIS_DIR=LEFT_RIGHT
		DEPTH_AXIS_DIR=UP_DOWN
		ENERGY=6.00
		NOMINAL_DMAX=15.00
		SSD=900.00
		SCD=450.00
		WEDGE_ANGLE=0.00
		FIELD_INPLANE=30.00
		FIELD_CROSSPLANE=30.00
		FIELD_TYPE=RECTANGULAR
		GANTRY=0.00
		GANTRY_UPRIGHT_POSITION=0
		GANTRY_ROTATION=CW
		COLL_ANGLE=0.00
		COLL_OFFSET_INPLANE=0.00
		COLL_OFFSET_CROSSPLANE=0.00
		SCAN_DEVICE=BeamScan
		SCAN_DEVICE_SETUP=BARA_LEFT_RIGHT
		ELECTROMETER=BeamScan
		RANGE_FIELD=LOW
		RANGE_REFERENCE=MEDIUM
		DETECTOR=THIMBLE_CHAMBER
		DETECTOR_SUBCODE=SEMIFLEX
		DETECTOR_RADIUS=2.40
		DETECTOR_NAME=PTW 31021 Semiflex 3D (1)
		DETECTOR_SN=142316
		DETECTOR_CALIBRATION=588000000.00
		DETECTOR_IS_CALIBRATED=1
		DETECTOR_REFERENCE=THIMBLE_CHAMBER
		DETECTOR_REFERENCE_SUBCODE=SEMIFLEX
		DETECTOR_REFERENCE_RADIUS=2.75
		DETECTOR_REFERENCE_NAME=PTW 31010 Semiflex (1)
		DETECTOR_REFERENCE_SN=ÃƒÆ’Ã‚Â¢ÃƒÂ¢Ã¢â‚¬Å¡Ã‚Â¬ÃƒÂ¢Ã¢â€šÂ¬
		DETECTOR_REFERENCE_IS_CALIBRATED=0
		DETECTOR_REFERENCE_CALIBRATION=303000000.00
		DETECTOR_HV=400.0
		DETECTOR_REFERENCE_HV=400.0
		DETECTOR_ORIENTATION=HORIZONTAL
		FILTER=FF
		SCAN_SPEED_PROFILE=12.50
		SCAN_PROF_SPEED_DEP=DEPTH
		SCAN_SPEED_PDD=12.50
		SCAN_PDD_SPEED_DEP=ENERGY
		DETECTOR_TYPE=T31021
		REF_FIELD_DEPTH=100.00
		REF_FIELD_DEFINED=ISOCENTER
		REF_FIELD_INPLANE=100.00
		REF_FIELD_CROSSPLANE=100.00
		REF_SCAN_POSITIONS=-85.00;-84.00;-83.00;-82.00;-81.00;-80.00;-79.00;-78.00;-77.00;-76.00;-75.00;-74.00;-73.00;-72.00;-71.00;-70.00;-69.00;-68.00;-67.00;-66.00;-65.00;-64.00;-63.00;-62.00;-61.00;-60.00;-59.00;-58.00;-57.00;-56.00;-55.00;-54.00;-53.00;-52.00;-51.00;-50.00;-49.00;-48.00;-47.00;-46.00;-45.00;-44.00;-43.00;-42.00;-41.00;-40.00;-39.00;-38.00;-37.00;-36.00;-35.00;-34.00;-33.00;-32.00;-31.00;-30.00;-29.00;-28.00;-27.00;-26.00;-25.00;-24.00;-23.00;-22.00;-21.00;-20.00;-19.00;-18.00;-17.00;-16.00;-15.00;-14.00;-13.00;-12.00;-11.00;-10.00;-9.00;-8.00;-7.00;-6.00;-5.00;-4.00;-3.00;-2.00;-1.00;0.00;1.00;2.00;3.00;4.00;5.00;6.00;7.00;8.00;9.00;10.00;11.00;12.00;13.00;14.00;15.00;16.00;17.00;18.00;19.00;20.00;21.00;22.00;23.00;24.00;25.00;26.00;27.00;28.00;29.00;30.00;31.00;32.00;33.00;34.00;35.00;36.00;37.00;38.00;39.00;40.00;41.00;42.00;43.00;44.00;45.00;46.00;47.00;48.00;49.00;50.00;51.00;52.00;53.00;54.00;55.00;56.00;57.00;58.00;59.00;60.00;61.00;62.00;63.00;64.00;65.00;66.00;67.00;68.00;69.00;70.00;71.00;72.00;73.00;74.00;75.00;76.00;77.00;78.00;79.00;80.00;81.00;82.00;83.00;84.00;85.00;
		REF_OVERSCAN_FACTOR=1.00
		SCAN_CURVETYPE=CROSSPLANE_PROFILE
		SCAN_DEPTH=50.00
		SCAN_OFFAXIS_INPLANE=0.00
		SCAN_OFFAXIS_CROSSPLANE=0.00
		SCAN_ANGLE=0.00
		SCAN_DIAGONAL=NOT_DIAGONAL
		SCAN_DIRECTION=NEGATIVE
		MEAS_MEDIUM=WATER
		MEAS_PRESET=MEAS_CONTINUOUS_REFERENCE_SCAN
		MEAS_TIME=0.080
		MEAS_UNIT=A.U.
		INCLINATION_ANGLE=0.00
		PRESSURE=1013.25
		TEMPERATURE=20.00
		NORM_TEMPERATURE=20.00
		CORRECTION_FACTOR=1.0000
		EXPECTED_MAX_DOSE_RATE=3.00
		EPOM_DEPTH_SHIFT=0.2
		EPOM_MODE=SHIFT_PROTOCOL
		CORRECTIONS=SMOOTHED_CORR;CAX_CORR;SYMMETRY_CORR;INTERPOLATED_CORR;
		BEGIN_DATA
			-48.00		18.350E-03
			-47.50		18.475E-03
			-47.00		18.599E-03
			-46.50		18.847E-03
			-46.00		19.094E-03
			-45.50		19.407E-03
			-45.00		19.721E-03
			-44.50		20.134E-03
			-44.00		20.548E-03
			-43.50		20.932E-03
			-43.00		21.316E-03
			-42.50		22.011E-03
			-42.00		22.707E-03
			-41.50		23.145E-03
			-41.00		23.583E-03
			-40.50		24.116E-03
			-40.00		24.649E-03
			-39.50		25.169E-03
			-39.00		25.690E-03
			-38.50		26.337E-03
			-38.00		26.984E-03
			-37.50		27.446E-03
			-37.00		27.908E-03
			-36.50		28.641E-03
			-36.00		29.374E-03
			-35.50		30.219E-03
			-35.00		31.065E-03
			-34.50		31.804E-03
			-34.00		32.543E-03
			-33.50		33.521E-03
			-33.00		34.500E-03
			-32.50		35.384E-03
			-32.00		36.268E-03
			-31.50		37.497E-03
			-31.00		38.727E-03
			-30.50		39.926E-03
			-30.00		41.125E-03
			-29.50		42.457E-03
			-29.00		43.789E-03
			-28.50		45.428E-03
			-28.00		47.066E-03
			-27.50		48.862E-03
			-27.00		50.658E-03
			-26.50		52.664E-03
			-26.00		54.670E-03
			-25.50		56.999E-03
			-25.00		59.329E-03
			-24.50		62.882E-03
			-24.00		66.436E-03
			-23.50		70.710E-03
			-23.00		74.984E-03
			-22.50		81.458E-03
			-22.00		87.933E-03
			-21.50		96.121E-03
			-21.00		104.31E-03
			-20.50		116.91E-03
			-20.00		129.51E-03
			-19.50		150.00E-03
			-19.00		170.49E-03
			-18.50		205.22E-03
			-18.00		239.94E-03
			-17.50		301.98E-03
			-17.00		364.01E-03
			-16.50		465.48E-03
			-16.00		566.94E-03
			-15.50		701.66E-03
			-15.00		836.37E-03
			-14.50		994.79E-03
			-14.00		1.1532E+00
			-13.50		1.3112E+00
			-13.00		1.4693E+00
			-12.50		1.6056E+00
			-12.00		1.7420E+00
			-11.50		1.8463E+00
			-11.00		1.9505E+00
			-10.50		2.0159E+00
			-10.00		2.0812E+00
			-9.50		2.1149E+00
			-9.00		2.1487E+00
			-8.50		2.1687E+00
			-8.00		2.1887E+00
			-7.50		2.2013E+00
			-7.00		2.2139E+00
			-6.50		2.2218E+00
			-6.00		2.2298E+00
			-5.50		2.2353E+00
			-5.00		2.2408E+00
			-4.50		2.2447E+00
			-4.00		2.2486E+00
			-3.50		2.2513E+00
			-3.00		2.2540E+00
			-2.50		2.2555E+00
			-2.00		2.2569E+00
			-1.50		2.2564E+00
			-1.00		2.2559E+00
			-0.50		2.2552E+00
			0.00		2.2545E+00
			0.50		2.2552E+00
			1.00		2.2559E+00
			1.50		2.2564E+00
			2.00		2.2569E+00
			2.50		2.2555E+00
			3.00		2.2540E+00
			3.50		2.2513E+00
			4.00		2.2486E+00
			4.50		2.2447E+00
			5.00		2.2408E+00
			5.50		2.2353E+00
			6.00		2.2298E+00
			6.50		2.2218E+00
			7.00		2.2139E+00
			7.50		2.2013E+00
			8.00		2.1887E+00
			8.50		2.1687E+00
			9.00		2.1487E+00
			9.50		2.1149E+00
			10.00		2.0812E+00
			10.50		2.0159E+00
			11.00		1.9505E+00
			11.50		1.8463E+00
			12.00		1.7420E+00
			12.50		1.6056E+00
			13.00		1.4693E+00
			13.50		1.3112E+00
			14.00		1.1532E+00
			14.50		994.79E-03
			15.00		836.37E-03
			15.50		701.66E-03
			16.00		566.94E-03
			16.50		465.48E-03
			17.00		364.01E-03
			17.50		301.98E-03
			18.00		239.94E-03
			18.50		205.22E-03
			19.00		170.49E-03
			19.50		150.00E-03
			20.00		129.51E-03
			20.50		116.91E-03
			21.00		104.31E-03
			21.50		96.121E-03
			22.00		87.933E-03
			22.50		81.458E-03
			23.00		74.984E-03
			23.50		70.710E-03
			24.00		66.436E-03
			24.50		62.882E-03
			25.00		59.329E-03
			25.50		56.999E-03
			26.00		54.670E-03
			26.50		52.664E-03
			27.00		50.658E-03
			27.50		48.862E-03
			28.00		47.066E-03
			28.50		45.428E-03
			29.00		43.789E-03
			29.50		42.457E-03
			30.00		41.125E-03
			30.50		39.926E-03
			31.00		38.727E-03
			31.50		37.497E-03
			32.00		36.268E-03
			32.50		35.384E-03
			33.00		34.500E-03
			33.50		33.521E-03
			34.00		32.543E-03
			34.50		31.804E-03
			35.00		31.065E-03
			35.50		30.219E-03
			36.00		29.374E-03
			36.50		28.641E-03
			37.00		27.908E-03
			37.50		27.446E-03
			38.00		26.984E-03
			38.50		26.337E-03
			39.00		25.690E-03
			39.50		25.169E-03
			40.00		24.649E-03
			40.50		24.116E-03
			41.00		23.583E-03
			41.50		23.145E-03
			42.00		22.707E-03
			42.50		22.011E-03
			43.00		21.316E-03
			43.50		20.932E-03
			44.00		20.548E-03
			44.50		20.134E-03
			45.00		19.721E-03
			45.50		19.407E-03
			46.00		19.094E-03
			46.50		18.847E-03
			47.00		18.599E-03
			47.50		18.475E-03
			48.00		18.350E-03
		END_DATA
	END_SCAN  2
	BEGIN_SCAN  3
		TASK_NAME=tba PDD Profiles
		PROGRAM=WaterTankScans
		COMMENT=PDD + 5x X
		MEAS_DATE=08-Feb-2021 09:34:16
		LINAC=TRUEBEAMSN4791
		MODALITY=X
		ISOCENTER=1000.00
		INPLANE_AXIS=Y
		CROSSPLANE_AXIS=X
		DEPTH_AXIS=Depth
		INPLANE_AXIS_DIR=TARGET_GUN
		CROSSPLANE_AXIS_DIR=LEFT_RIGHT
		DEPTH_AXIS_DIR=UP_DOWN
		ENERGY=6.00
		NOMINAL_DMAX=15.00
		SSD=900.00
		SCD=450.00
		WEDGE_ANGLE=0.00
		FIELD_INPLANE=30.00
		FIELD_CROSSPLANE=30.00
		FIELD_TYPE=RECTANGULAR
		GANTRY=0.00
		GANTRY_UPRIGHT_POSITION=0
		GANTRY_ROTATION=CW
		COLL_ANGLE=0.00
		COLL_OFFSET_INPLANE=0.00
		COLL_OFFSET_CROSSPLANE=0.00
		SCAN_DEVICE=BeamScan
		SCAN_DEVICE_SETUP=BARA_LEFT_RIGHT
		ELECTROMETER=BeamScan
		RANGE_FIELD=LOW
		RANGE_REFERENCE=MEDIUM
		DETECTOR=THIMBLE_CHAMBER
		DETECTOR_SUBCODE=SEMIFLEX
		DETECTOR_RADIUS=2.40
		DETECTOR_NAME=PTW 31021 Semiflex 3D (1)
		DETECTOR_SN=142316
		DETECTOR_CALIBRATION=588000000.00
		DETECTOR_IS_CALIBRATED=1
		DETECTOR_REFERENCE=THIMBLE_CHAMBER
		DETECTOR_REFERENCE_SUBCODE=SEMIFLEX
		DETECTOR_REFERENCE_RADIUS=2.75
		DETECTOR_REFERENCE_NAME=PTW 31010 Semiflex (1)
		DETECTOR_REFERENCE_SN=ÃƒÆ’Ã‚Â¢ÃƒÂ¢Ã¢â‚¬Å¡Ã‚Â¬ÃƒÂ¢Ã¢â€šÂ¬
		DETECTOR_REFERENCE_IS_CALIBRATED=0
		DETECTOR_REFERENCE_CALIBRATION=303000000.00
		DETECTOR_HV=400.0
		DETECTOR_REFERENCE_HV=400.0
		DETECTOR_ORIENTATION=HORIZONTAL
		FILTER=FF
		SCAN_SPEED_PROFILE=12.50
		SCAN_PROF_SPEED_DEP=DEPTH
		SCAN_SPEED_PDD=12.50
		SCAN_PDD_SPEED_DEP=ENERGY
		DETECTOR_TYPE=T31021
		REF_FIELD_DEPTH=100.00
		REF_FIELD_DEFINED=ISOCENTER
		REF_FIELD_INPLANE=100.00
		REF_FIELD_CROSSPLANE=100.00
		REF_SCAN_POSITIONS=-85.00;-84.00;-83.00;-82.00;-81.00;-80.00;-79.00;-78.00;-77.00;-76.00;-75.00;-74.00;-73.00;-72.00;-71.00;-70.00;-69.00;-68.00;-67.00;-66.00;-65.00;-64.00;-63.00;-62.00;-61.00;-60.00;-59.00;-58.00;-57.00;-56.00;-55.00;-54.00;-53.00;-52.00;-51.00;-50.00;-49.00;-48.00;-47.00;-46.00;-45.00;-44.00;-43.00;-42.00;-41.00;-40.00;-39.00;-38.00;-37.00;-36.00;-35.00;-34.00;-33.00;-32.00;-31.00;-30.00;-29.00;-28.00;-27.00;-26.00;-25.00;-24.00;-23.00;-22.00;-21.00;-20.00;-19.00;-18.00;-17.00;-16.00;-15.00;-14.00;-13.00;-12.00;-11.00;-10.00;-9.00;-8.00;-7.00;-6.00;-5.00;-4.00;-3.00;-2.00;-1.00;0.00;1.00;2.00;3.00;4.00;5.00;6.00;7.00;8.00;9.00;10.00;11.00;12.00;13.00;14.00;15.00;16.00;17.00;18.00;19.00;20.00;21.00;22.00;23.00;24.00;25.00;26.00;27.00;28.00;29.00;30.00;31.00;32.00;33.00;34.00;35.00;36.00;37.00;38.00;39.00;40.00;41.00;42.00;43.00;44.00;45.00;46.00;47.00;48.00;49.00;50.00;51.00;52.00;53.00;54.00;55.00;56.00;57.00;58.00;59.00;60.00;61.00;62.00;63.00;64.00;65.00;66.00;67.00;68.00;69.00;70.00;71.00;72.00;73.00;74.00;75.00;76.00;77.00;78.00;79.00;80.00;81.00;82.00;83.00;84.00;85.00;
		REF_OVERSCAN_FACTOR=1.00
		SCAN_CURVETYPE=CROSSPLANE_PROFILE
		SCAN_DEPTH=100.00
		SCAN_OFFAXIS_INPLANE=0.00
		SCAN_OFFAXIS_CROSSPLANE=0.00
		SCAN_ANGLE=0.00
		SCAN_DIAGONAL=NOT_DIAGONAL
		SCAN_DIRECTION=POSITIVE
		MEAS_MEDIUM=WATER
		MEAS_PRESET=MEAS_CONTINUOUS_REFERENCE_SCAN
		MEAS_TIME=0.080
		MEAS_UNIT=A.U.
		INCLINATION_ANGLE=0.00
		PRESSURE=1013.25
		TEMPERATURE=20.00
		NORM_TEMPERATURE=20.00
		CORRECTION_FACTOR=1.0000
		EXPECTED_MAX_DOSE_RATE=3.00
		EPOM_DEPTH_SHIFT=0.2
		EPOM_MODE=SHIFT_PROTOCOL
		CORRECTIONS=SMOOTHED_CORR;CAX_CORR;SYMMETRY_CORR;INTERPOLATED_CORR;
		BEGIN_DATA
			-50.00		19.908E-03
			-49.50		20.003E-03
			-49.00		20.098E-03
			-48.50		20.668E-03
			-48.00		21.237E-03
			-47.50		21.427E-03
			-47.00		21.617E-03
			-46.50		22.236E-03
			-46.00		22.856E-03
			-45.50		23.245E-03
			-45.00		23.634E-03
			-44.50		23.899E-03
			-44.00		24.163E-03
			-43.50		24.741E-03
			-43.00		25.319E-03
			-42.50		25.972E-03
			-42.00		26.625E-03
			-41.50		26.946E-03
			-41.00		27.267E-03
			-40.50		27.915E-03
			-40.00		28.563E-03
			-39.50		29.091E-03
			-39.00		29.618E-03
			-38.50		30.556E-03
			-38.00		31.493E-03
			-37.50		32.038E-03
			-37.00		32.582E-03
			-36.50		33.276E-03
			-36.00		33.971E-03
			-35.50		34.781E-03
			-35.00		35.590E-03
			-34.50		36.360E-03
			-34.00		37.129E-03
			-33.50		37.990E-03
			-33.00		38.851E-03
			-32.50		40.041E-03
			-32.00		41.231E-03
			-31.50		42.324E-03
			-31.00		43.417E-03
			-30.50		44.822E-03
			-30.00		46.226E-03
			-29.50		47.357E-03
			-29.00		48.489E-03
			-28.50		50.148E-03
			-28.00		51.807E-03
			-27.50		53.337E-03
			-27.00		54.866E-03
			-26.50		56.617E-03
			-26.00		58.369E-03
			-25.50		61.185E-03
			-25.00		64.001E-03
			-24.50		67.423E-03
			-24.00		70.845E-03
			-23.50		75.084E-03
			-23.00		79.322E-03
			-22.50		85.287E-03
			-22.00		91.253E-03
			-21.50		99.891E-03
			-21.00		108.53E-03
			-20.50		121.71E-03
			-20.00		134.89E-03
			-19.50		157.55E-03
			-19.00		180.22E-03
			-18.50		218.47E-03
			-18.00		256.72E-03
			-17.50		321.05E-03
			-17.00		385.39E-03
			-16.50		474.60E-03
			-16.00		563.80E-03
			-15.50		670.45E-03
			-15.00		777.10E-03
			-14.50		889.95E-03
			-14.00		1.0028E+00
			-13.50		1.1035E+00
			-13.00		1.2041E+00
			-12.50		1.2845E+00
			-12.00		1.3648E+00
			-11.50		1.4164E+00
			-11.00		1.4679E+00
			-10.50		1.4972E+00
			-10.00		1.5265E+00
			-9.50		1.5456E+00
			-9.00		1.5647E+00
			-8.50		1.5766E+00
			-8.00		1.5884E+00
			-7.50		1.5956E+00
			-7.00		1.6028E+00
			-6.50		1.6073E+00
			-6.00		1.6118E+00
			-5.50		1.6151E+00
			-5.00		1.6184E+00
			-4.50		1.6210E+00
			-4.00		1.6236E+00
			-3.50		1.6252E+00
			-3.00		1.6269E+00
			-2.50		1.6277E+00
			-2.00		1.6285E+00
			-1.50		1.6289E+00
			-1.00		1.6293E+00
			-0.50		1.6294E+00
			0.00		1.6295E+00
			0.50		1.6294E+00
			1.00		1.6293E+00
			1.50		1.6289E+00
			2.00		1.6285E+00
			2.50		1.6277E+00
			3.00		1.6269E+00
			3.50		1.6252E+00
			4.00		1.6236E+00
			4.50		1.6210E+00
			5.00		1.6184E+00
			5.50		1.6151E+00
			6.00		1.6118E+00
			6.50		1.6073E+00
			7.00		1.6028E+00
			7.50		1.5956E+00
			8.00		1.5884E+00
			8.50		1.5766E+00
			9.00		1.5647E+00
			9.50		1.5456E+00
			10.00		1.5265E+00
			10.50		1.4972E+00
			11.00		1.4679E+00
			11.50		1.4164E+00
			12.00		1.3648E+00
			12.50		1.2845E+00
			13.00		1.2041E+00
			13.50		1.1035E+00
			14.00		1.0028E+00
			14.50		889.95E-03
			15.00		777.10E-03
			15.50		670.45E-03
			16.00		563.80E-03
			16.50		474.60E-03
			17.00		385.39E-03
			17.50		321.05E-03
			18.00		256.72E-03
			18.50		218.47E-03
			19.00		180.22E-03
			19.50		157.55E-03
			20.00		134.89E-03
			20.50		121.71E-03
			21.00		108.53E-03
			21.50		99.891E-03
			22.00		91.253E-03
			22.50		85.287E-03
			23.00		79.322E-03
			23.50		75.084E-03
			24.00		70.845E-03
			24.50		67.423E-03
			25.00		64.001E-03
			25.50		61.185E-03
			26.00		58.369E-03
			26.50		56.617E-03
			27.00		54.866E-03
			27.50		53.337E-03
			28.00		51.807E-03
			28.50		50.148E-03
			29.00		48.489E-03
			29.50		47.357E-03
			30.00		46.226E-03
			30.50		44.822E-03
			31.00		43.417E-03
			31.50		42.324E-03
			32.00		41.231E-03
			32.50		40.041E-03
			33.00		38.851E-03
			33.50		37.990E-03
			34.00		37.129E-03
			34.50		36.360E-03
			35.00		35.590E-03
			35.50		34.781E-03
			36.00		33.971E-03
			36.50		33.276E-03
			37.00		32.582E-03
			37.50		32.038E-03
			38.00		31.493E-03
			38.50		30.556E-03
			39.00		29.618E-03
			39.50		29.091E-03
			40.00		28.563E-03
			40.50		27.915E-03
			41.00		27.267E-03
			41.50		26.946E-03
			42.00		26.625E-03
			42.50		25.972E-03
			43.00		25.319E-03
			43.50		24.741E-03
			44.00		24.163E-03
			44.50		23.899E-03
			45.00		23.634E-03
			45.50		23.245E-03
			46.00		22.856E-03
			46.50		22.236E-03
			47.00		21.617E-03
			47.50		21.427E-03
			48.00		21.237E-03
			48.50		20.668E-03
			49.00		20.098E-03
			49.50		20.003E-03
			50.00		19.908E-03
		END_DATA
	END_SCAN  3
	BEGIN_SCAN  4
		TASK_NAME=tba PDD Profiles
		PROGRAM=WaterTankScans
		COMMENT=PDD + 5x X
		MEAS_DATE=08-Feb-2021 09:34:28
		LINAC=TRUEBEAMSN4791
		MODALITY=X
		ISOCENTER=1000.00
		INPLANE_AXIS=Y
		CROSSPLANE_AXIS=X
		DEPTH_AXIS=Depth
		INPLANE_AXIS_DIR=TARGET_GUN
		CROSSPLANE_AXIS_DIR=LEFT_RIGHT
		DEPTH_AXIS_DIR=UP_DOWN
		ENERGY=6.00
		NOMINAL_DMAX=15.00
		SSD=900.00
		SCD=450.00
		WEDGE_ANGLE=0.00
		FIELD_INPLANE=30.00
		FIELD_CROSSPLANE=30.00
		FIELD_TYPE=RECTANGULAR
		GANTRY=0.00
		GANTRY_UPRIGHT_POSITION=0
		GANTRY_ROTATION=CW
		COLL_ANGLE=0.00
		COLL_OFFSET_INPLANE=0.00
		COLL_OFFSET_CROSSPLANE=0.00
		SCAN_DEVICE=BeamScan
		SCAN_DEVICE_SETUP=BARA_LEFT_RIGHT
		ELECTROMETER=BeamScan
		RANGE_FIELD=LOW
		RANGE_REFERENCE=MEDIUM
		DETECTOR=THIMBLE_CHAMBER
		DETECTOR_SUBCODE=SEMIFLEX
		DETECTOR_RADIUS=2.40
		DETECTOR_NAME=PTW 31021 Semiflex 3D (1)
		DETECTOR_SN=142316
		DETECTOR_CALIBRATION=588000000.00
		DETECTOR_IS_CALIBRATED=1
		DETECTOR_REFERENCE=THIMBLE_CHAMBER
		DETECTOR_REFERENCE_SUBCODE=SEMIFLEX
		DETECTOR_REFERENCE_RADIUS=2.75
		DETECTOR_REFERENCE_NAME=PTW 31010 Semiflex (1)
		DETECTOR_REFERENCE_SN=ÃƒÆ’Ã‚Â¢ÃƒÂ¢Ã¢â‚¬Å¡Ã‚Â¬ÃƒÂ¢Ã¢â€šÂ¬
		DETECTOR_REFERENCE_IS_CALIBRATED=0
		DETECTOR_REFERENCE_CALIBRATION=303000000.00
		DETECTOR_HV=400.0
		DETECTOR_REFERENCE_HV=400.0
		DETECTOR_ORIENTATION=HORIZONTAL
		FILTER=FF
		SCAN_SPEED_PROFILE=10.00
		SCAN_PROF_SPEED_DEP=DEPTH
		SCAN_SPEED_PDD=12.50
		SCAN_PDD_SPEED_DEP=ENERGY
		DETECTOR_TYPE=T31021
		REF_FIELD_DEPTH=100.00
		REF_FIELD_DEFINED=ISOCENTER
		REF_FIELD_INPLANE=100.00
		REF_FIELD_CROSSPLANE=100.00
		REF_SCAN_POSITIONS=-85.00;-84.00;-83.00;-82.00;-81.00;-80.00;-79.00;-78.00;-77.00;-76.00;-75.00;-74.00;-73.00;-72.00;-71.00;-70.00;-69.00;-68.00;-67.00;-66.00;-65.00;-64.00;-63.00;-62.00;-61.00;-60.00;-59.00;-58.00;-57.00;-56.00;-55.00;-54.00;-53.00;-52.00;-51.00;-50.00;-49.00;-48.00;-47.00;-46.00;-45.00;-44.00;-43.00;-42.00;-41.00;-40.00;-39.00;-38.00;-37.00;-36.00;-35.00;-34.00;-33.00;-32.00;-31.00;-30.00;-29.00;-28.00;-27.00;-26.00;-25.00;-24.00;-23.00;-22.00;-21.00;-20.00;-19.00;-18.00;-17.00;-16.00;-15.00;-14.00;-13.00;-12.00;-11.00;-10.00;-9.00;-8.00;-7.00;-6.00;-5.00;-4.00;-3.00;-2.00;-1.00;0.00;1.00;2.00;3.00;4.00;5.00;6.00;7.00;8.00;9.00;10.00;11.00;12.00;13.00;14.00;15.00;16.00;17.00;18.00;19.00;20.00;21.00;22.00;23.00;24.00;25.00;26.00;27.00;28.00;29.00;30.00;31.00;32.00;33.00;34.00;35.00;36.00;37.00;38.00;39.00;40.00;41.00;42.00;43.00;44.00;45.00;46.00;47.00;48.00;49.00;50.00;51.00;52.00;53.00;54.00;55.00;56.00;57.00;58.00;59.00;60.00;61.00;62.00;63.00;64.00;65.00;66.00;67.00;68.00;69.00;70.00;71.00;72.00;73.00;74.00;75.00;76.00;77.00;78.00;79.00;80.00;81.00;82.00;83.00;84.00;85.00;
		REF_OVERSCAN_FACTOR=1.00
		SCAN_CURVETYPE=CROSSPLANE_PROFILE
		SCAN_DEPTH=200.00
		SCAN_OFFAXIS_INPLANE=0.00
		SCAN_OFFAXIS_CROSSPLANE=0.00
		SCAN_ANGLE=0.00
		SCAN_DIAGONAL=NOT_DIAGONAL
		SCAN_DIRECTION=NEGATIVE
		MEAS_MEDIUM=WATER
		MEAS_PRESET=MEAS_CONTINUOUS_REFERENCE_SCAN
		MEAS_TIME=0.100
		MEAS_UNIT=A.U.
		INCLINATION_ANGLE=0.00
		PRESSURE=1013.25
		TEMPERATURE=20.00
		NORM_TEMPERATURE=20.00
		CORRECTION_FACTOR=1.0000
		EXPECTED_MAX_DOSE_RATE=3.00
		EPOM_DEPTH_SHIFT=0.2
		EPOM_MODE=SHIFT_PROTOCOL
		CORRECTIONS=SMOOTHED_CORR;CAX_CORR;SYMMETRY_CORR;INTERPOLATED_CORR;
		BEGIN_DATA
			-55.00		15.298E-03
			-54.50		15.597E-03
			-54.00		15.896E-03
			-53.50		16.128E-03
			-53.00		16.361E-03
			-52.50		16.716E-03
			-52.00		17.072E-03
			-51.50		17.288E-03
			-51.00		17.503E-03
			-50.50		17.775E-03
			-50.00		18.047E-03
			-49.50		18.341E-03
			-49.00		18.634E-03
			-48.50		18.800E-03
			-48.00		18.966E-03
			-47.50		19.250E-03
			-47.00		19.534E-03
			-46.50		19.817E-03
			-46.00		20.101E-03
			-45.50		20.451E-03
			-45.00		20.801E-03
			-44.50		21.225E-03
			-44.00		21.649E-03
			-43.50		22.107E-03
			-43.00		22.565E-03
			-42.50		23.013E-03
			-42.00		23.460E-03
			-41.50		23.681E-03
			-41.00		23.901E-03
			-40.50		24.218E-03
			-40.00		24.535E-03
			-39.50		25.107E-03
			-39.00		25.679E-03
			-38.50		26.055E-03
			-38.00		26.432E-03
			-37.50		26.922E-03
			-37.00		27.413E-03
			-36.50		28.153E-03
			-36.00		28.894E-03
			-35.50		29.339E-03
			-35.00		29.785E-03
			-34.50		30.424E-03
			-34.00		31.063E-03
			-33.50		31.723E-03
			-33.00		32.384E-03
			-32.50		33.034E-03
			-32.00		33.684E-03
			-31.50		34.243E-03
			-31.00		34.802E-03
			-30.50		35.758E-03
			-30.00		36.713E-03
			-29.50		37.489E-03
			-29.00		38.265E-03
			-28.50		39.240E-03
			-28.00		40.215E-03
			-27.50		41.538E-03
			-27.00		42.860E-03
			-26.50		44.741E-03
			-26.00		46.622E-03
			-25.50		48.942E-03
			-25.00		51.262E-03
			-24.50		54.172E-03
			-24.00		57.082E-03
			-23.50		61.354E-03
			-23.00		65.626E-03
			-22.50		71.797E-03
			-22.00		77.968E-03
			-21.50		87.815E-03
			-21.00		97.662E-03
			-20.50		114.26E-03
			-20.00		130.85E-03
			-19.50		157.06E-03
			-19.00		183.27E-03
			-18.50		222.03E-03
			-18.00		260.79E-03
			-17.50		309.92E-03
			-17.00		359.06E-03
			-16.50		413.96E-03
			-16.00		468.86E-03
			-15.50		523.07E-03
			-15.00		577.28E-03
			-14.50		623.91E-03
			-14.00		670.54E-03
			-13.50		705.57E-03
			-13.00		740.61E-03
			-12.50		763.15E-03
			-12.00		785.70E-03
			-11.50		799.07E-03
			-11.00		812.44E-03
			-10.50		820.61E-03
			-10.00		828.79E-03
			-9.50		833.87E-03
			-9.00		838.94E-03
			-8.50		842.57E-03
			-8.00		846.20E-03
			-7.50		848.94E-03
			-7.00		851.67E-03
			-6.50		853.29E-03
			-6.00		854.91E-03
			-5.50		855.80E-03
			-5.00		856.68E-03
			-4.50		857.23E-03
			-4.00		857.78E-03
			-3.50		858.30E-03
			-3.00		858.83E-03
			-2.50		859.26E-03
			-2.00		859.69E-03
			-1.50		859.72E-03
			-1.00		859.76E-03
			-0.50		859.70E-03
			0.00		859.64E-03
			0.50		859.70E-03
			1.00		859.76E-03
			1.50		859.72E-03
			2.00		859.69E-03
			2.50		859.26E-03
			3.00		858.83E-03
			3.50		858.30E-03
			4.00		857.78E-03
			4.50		857.23E-03
			5.00		856.68E-03
			5.50		855.80E-03
			6.00		854.91E-03
			6.50		853.29E-03
			7.00		851.67E-03
			7.50		848.94E-03
			8.00		846.20E-03
			8.50		842.57E-03
			9.00		838.94E-03
			9.50		833.87E-03
			10.00		828.79E-03
			10.50		820.61E-03
			11.00		812.44E-03
			11.50		799.07E-03
			12.00		785.70E-03
			12.50		763.15E-03
			13.00		740.61E-03
			13.50		705.57E-03
			14.00		670.54E-03
			14.50		623.91E-03
			15.00		577.28E-03
			15.50		523.07E-03
			16.00		468.86E-03
			16.50		413.96E-03
			17.00		359.06E-03
			17.50		309.92E-03
			18.00		260.79E-03
			18.50		222.03E-03
			19.00		183.27E-03
			19.50		157.06E-03
			20.00		130.85E-03
			20.50		114.26E-03
			21.00		97.662E-03
			21.50		87.815E-03
			22.00		77.968E-03
			22.50		71.797E-03
			23.00		65.626E-03
			23.50		61.354E-03
			24.00		57.082E-03
			24.50		54.172E-03
			25.00		51.262E-03
			25.50		48.942E-03
			26.00		46.622E-03
			26.50		44.741E-03
			27.00		42.860E-03
			27.50		41.538E-03
			28.00		40.215E-03
			28.50		39.240E-03
			29.00		38.265E-03
			29.50		37.489E-03
			30.00		36.713E-03
			30.50		35.758E-03
			31.00		34.802E-03
			31.50		34.243E-03
			32.00		33.684E-03
			32.50		33.034E-03
			33.00		32.384E-03
			33.50		31.723E-03
			34.00		31.063E-03
			34.50		30.424E-03
			35.00		29.785E-03
			35.50		29.339E-03
			36.00		28.894E-03
			36.50		28.153E-03
			37.00		27.413E-03
			37.50		26.922E-03
			38.00		26.432E-03
			38.50		26.055E-03
			39.00		25.679E-03
			39.50		25.107E-03
			40.00		24.535E-03
			40.50		24.218E-03
			41.00		23.901E-03
			41.50		23.681E-03
			42.00		23.460E-03
			42.50		23.013E-03
			43.00		22.565E-03
			43.50		22.107E-03
			44.00		21.649E-03
			44.50		21.225E-03
			45.00		20.801E-03
			45.50		20.451E-03
			46.00		20.101E-03
			46.50		19.817E-03
			47.00		19.534E-03
			47.50		19.250E-03
			48.00		18.966E-03
			48.50		18.800E-03
			49.00		18.634E-03
			49.50		18.341E-03
			50.00		18.047E-03
			50.50		17.775E-03
			51.00		17.503E-03
			51.50		17.288E-03
			52.00		17.072E-03
			52.50		16.716E-03
			53.00		16.361E-03
			53.50		16.128E-03
			54.00		15.896E-03
			54.50		15.597E-03
			55.00		15.298E-03
		END_DATA
	END_SCAN  4
	BEGIN_SCAN  5
		TASK_NAME=tba PDD Profiles
		PROGRAM=WaterTankScans
		COMMENT=PDD + 5x X
		MEAS_DATE=08-Feb-2021 09:34:45
		LINAC=TRUEBEAMSN4791
		MODALITY=X
		ISOCENTER=1000.00
		INPLANE_AXIS=Y
		CROSSPLANE_AXIS=X
		DEPTH_AXIS=Depth
		INPLANE_AXIS_DIR=TARGET_GUN
		CROSSPLANE_AXIS_DIR=LEFT_RIGHT
		DEPTH_AXIS_DIR=UP_DOWN
		ENERGY=6.00
		NOMINAL_DMAX=15.00
		SSD=900.00
		SCD=450.00
		WEDGE_ANGLE=0.00
		FIELD_INPLANE=30.00
		FIELD_CROSSPLANE=30.00
		FIELD_TYPE=RECTANGULAR
		GANTRY=0.00
		GANTRY_UPRIGHT_POSITION=0
		GANTRY_ROTATION=CW
		COLL_ANGLE=0.00
		COLL_OFFSET_INPLANE=0.00
		COLL_OFFSET_CROSSPLANE=0.00
		SCAN_DEVICE=BeamScan
		SCAN_DEVICE_SETUP=BARA_LEFT_RIGHT
		ELECTROMETER=BeamScan
		RANGE_FIELD=LOW
		RANGE_REFERENCE=MEDIUM
		DETECTOR=THIMBLE_CHAMBER
		DETECTOR_SUBCODE=SEMIFLEX
		DETECTOR_RADIUS=2.40
		DETECTOR_NAME=PTW 31021 Semiflex 3D (1)
		DETECTOR_SN=142316
		DETECTOR_CALIBRATION=588000000.00
		DETECTOR_IS_CALIBRATED=1
		DETECTOR_REFERENCE=THIMBLE_CHAMBER
		DETECTOR_REFERENCE_SUBCODE=SEMIFLEX
		DETECTOR_REFERENCE_RADIUS=2.75
		DETECTOR_REFERENCE_NAME=PTW 31010 Semiflex (1)
		DETECTOR_REFERENCE_SN=ÃƒÆ’Ã‚Â¢ÃƒÂ¢Ã¢â‚¬Å¡Ã‚Â¬ÃƒÂ¢Ã¢â€šÂ¬
		DETECTOR_REFERENCE_IS_CALIBRATED=0
		DETECTOR_REFERENCE_CALIBRATION=303000000.00
		DETECTOR_HV=400.0
		DETECTOR_REFERENCE_HV=400.0
		DETECTOR_ORIENTATION=HORIZONTAL
		FILTER=FF
		SCAN_SPEED_PROFILE=10.00
		SCAN_PROF_SPEED_DEP=DEPTH
		SCAN_SPEED_PDD=12.50
		SCAN_PDD_SPEED_DEP=ENERGY
		DETECTOR_TYPE=T31021
		REF_FIELD_DEPTH=100.00
		REF_FIELD_DEFINED=ISOCENTER
		REF_FIELD_INPLANE=100.00
		REF_FIELD_CROSSPLANE=100.00
		REF_SCAN_POSITIONS=-85.00;-84.00;-83.00;-82.00;-81.00;-80.00;-79.00;-78.00;-77.00;-76.00;-75.00;-74.00;-73.00;-72.00;-71.00;-70.00;-69.00;-68.00;-67.00;-66.00;-65.00;-64.00;-63.00;-62.00;-61.00;-60.00;-59.00;-58.00;-57.00;-56.00;-55.00;-54.00;-53.00;-52.00;-51.00;-50.00;-49.00;-48.00;-47.00;-46.00;-45.00;-44.00;-43.00;-42.00;-41.00;-40.00;-39.00;-38.00;-37.00;-36.00;-35.00;-34.00;-33.00;-32.00;-31.00;-30.00;-29.00;-28.00;-27.00;-26.00;-25.00;-24.00;-23.00;-22.00;-21.00;-20.00;-19.00;-18.00;-17.00;-16.00;-15.00;-14.00;-13.00;-12.00;-11.00;-10.00;-9.00;-8.00;-7.00;-6.00;-5.00;-4.00;-3.00;-2.00;-1.00;0.00;1.00;2.00;3.00;4.00;5.00;6.00;7.00;8.00;9.00;10.00;11.00;12.00;13.00;14.00;15.00;16.00;17.00;18.00;19.00;20.00;21.00;22.00;23.00;24.00;25.00;26.00;27.00;28.00;29.00;30.00;31.00;32.00;33.00;34.00;35.00;36.00;37.00;38.00;39.00;40.00;41.00;42.00;43.00;44.00;45.00;46.00;47.00;48.00;49.00;50.00;51.00;52.00;53.00;54.00;55.00;56.00;57.00;58.00;59.00;60.00;61.00;62.00;63.00;64.00;65.00;66.00;67.00;68.00;69.00;70.00;71.00;72.00;73.00;74.00;75.00;76.00;77.00;78.00;79.00;80.00;81.00;82.00;83.00;84.00;85.00;
		REF_OVERSCAN_FACTOR=1.00
		SCAN_CURVETYPE=CROSSPLANE_PROFILE
		SCAN_DEPTH=300.00
		SCAN_OFFAXIS_INPLANE=0.00
		SCAN_OFFAXIS_CROSSPLANE=0.00
		SCAN_ANGLE=0.00
		SCAN_DIAGONAL=NOT_DIAGONAL
		SCAN_DIRECTION=POSITIVE
		MEAS_MEDIUM=WATER
		MEAS_PRESET=MEAS_CONTINUOUS_REFERENCE_SCAN
		MEAS_TIME=0.100
		MEAS_UNIT=A.U.
		INCLINATION_ANGLE=0.00
		PRESSURE=1013.25
		TEMPERATURE=20.00
		NORM_TEMPERATURE=20.00
		CORRECTION_FACTOR=1.0000
		EXPECTED_MAX_DOSE_RATE=3.00
		EPOM_DEPTH_SHIFT=0.2
		EPOM_MODE=SHIFT_PROTOCOL
		CORRECTIONS=SMOOTHED_CORR;CAX_CORR;SYMMETRY_CORR;INTERPOLATED_CORR;
		BEGIN_DATA
			-60.00		10.696E-03
			-59.50		10.729E-03
			-59.00		10.762E-03
			-58.50		10.839E-03
			-58.00		10.917E-03
			-57.50		11.100E-03
			-57.00		11.284E-03
			-56.50		11.461E-03
			-56.00		11.638E-03
			-55.50		11.645E-03
			-55.00		11.652E-03
			-54.50		11.830E-03
			-54.00		12.007E-03
			-53.50		12.200E-03
			-53.00		12.393E-03
			-52.50		12.514E-03
			-52.00		12.636E-03
			-51.50		12.829E-03
			-51.00		13.022E-03
			-50.50		13.118E-03
			-50.00		13.214E-03
			-49.50		13.482E-03
			-49.00		13.751E-03
			-48.50		14.019E-03
			-48.00		14.287E-03
			-47.50		14.444E-03
			-47.00		14.601E-03
			-46.50		14.749E-03
			-46.00		14.898E-03
			-45.50		15.092E-03
			-45.00		15.287E-03
			-44.50		15.507E-03
			-44.00		15.726E-03
			-43.50		15.835E-03
			-43.00		15.944E-03
			-42.50		16.160E-03
			-42.00		16.375E-03
			-41.50		16.730E-03
			-41.00		17.084E-03
			-40.50		17.419E-03
			-40.00		17.754E-03
			-39.50		18.071E-03
			-39.00		18.388E-03
			-38.50		18.615E-03
			-38.00		18.842E-03
			-37.50		19.126E-03
			-37.00		19.409E-03
			-36.50		19.749E-03
			-36.00		20.089E-03
			-35.50		20.505E-03
			-35.00		20.920E-03
			-34.50		21.247E-03
			-34.00		21.575E-03
			-33.50		22.037E-03
			-33.00		22.498E-03
			-32.50		22.902E-03
			-32.00		23.305E-03
			-31.50		23.691E-03
			-31.00		24.077E-03
			-30.50		24.630E-03
			-30.00		25.183E-03
			-29.50		25.863E-03
			-29.00		26.542E-03
			-28.50		27.378E-03
			-28.00		28.215E-03
			-27.50		29.291E-03
			-27.00		30.366E-03
			-26.50		31.967E-03
			-26.00		33.568E-03
			-25.50		35.711E-03
			-25.00		37.855E-03
			-24.50		40.952E-03
			-24.00		44.049E-03
			-23.50		48.737E-03
			-23.00		53.425E-03
			-22.50		60.675E-03
			-22.00		67.926E-03
			-21.50		79.559E-03
			-21.00		91.192E-03
			-20.50		108.43E-03
			-20.00		125.66E-03
			-19.50		148.97E-03
			-19.00		172.28E-03
			-18.50		199.61E-03
			-18.00		226.93E-03
			-17.50		255.68E-03
			-17.00		284.42E-03
			-16.50		310.50E-03
			-16.00		336.57E-03
			-15.50		358.51E-03
			-15.00		380.45E-03
			-14.50		396.19E-03
			-14.00		411.94E-03
			-13.50		422.19E-03
			-13.00		432.44E-03
			-12.50		438.63E-03
			-12.00		444.81E-03
			-11.50		448.68E-03
			-11.00		452.54E-03
			-10.50		455.13E-03
			-10.00		457.71E-03
			-9.50		459.33E-03
			-9.00		460.94E-03
			-8.50		462.24E-03
			-8.00		463.54E-03
			-7.50		464.75E-03
			-7.00		465.96E-03
			-6.50		466.84E-03
			-6.00		467.72E-03
			-5.50		468.18E-03
			-5.00		468.64E-03
			-4.50		468.83E-03
			-4.00		469.02E-03
			-3.50		469.14E-03
			-3.00		469.26E-03
			-2.50		469.51E-03
			-2.00		469.76E-03
			-1.50		470.02E-03
			-1.00		470.28E-03
			-0.50		470.36E-03
			0.00		470.44E-03
			0.50		470.36E-03
			1.00		470.28E-03
			1.50		470.02E-03
			2.00		469.76E-03
			2.50		469.51E-03
			3.00		469.26E-03
			3.50		469.14E-03
			4.00		469.02E-03
			4.50		468.83E-03
			5.00		468.64E-03
			5.50		468.18E-03
			6.00		467.72E-03
			6.50		466.84E-03
			7.00		465.96E-03
			7.50		464.75E-03
			8.00		463.54E-03
			8.50		462.24E-03
			9.00		460.94E-03
			9.50		459.33E-03
			10.00		457.71E-03
			10.50		455.13E-03
			11.00		452.54E-03
			11.50		448.68E-03
			12.00		444.81E-03
			12.50		438.63E-03
			13.00		432.44E-03
			13.50		422.19E-03
			14.00		411.94E-03
			14.50		396.19E-03
			15.00		380.45E-03
			15.50		358.51E-03
			16.00		336.57E-03
			16.50		310.50E-03
			17.00		284.42E-03
			17.50		255.68E-03
			18.00		226.93E-03
			18.50		199.61E-03
			19.00		172.28E-03
			19.50		148.97E-03
			20.00		125.66E-03
			20.50		108.43E-03
			21.00		91.192E-03
			21.50		79.559E-03
			22.00		67.926E-03
			22.50		60.675E-03
			23.00		53.425E-03
			23.50		48.737E-03
			24.00		44.049E-03
			24.50		40.952E-03
			25.00		37.855E-03
			25.50		35.711E-03
			26.00		33.568E-03
			26.50		31.967E-03
			27.00		30.366E-03
			27.50		29.291E-03
			28.00		28.215E-03
			28.50		27.378E-03
			29.00		26.542E-03
			29.50		25.863E-03
			30.00		25.183E-03
			30.50		24.630E-03
			31.00		24.077E-03
			31.50		23.691E-03
			32.00		23.305E-03
			32.50		22.902E-03
			33.00		22.498E-03
			33.50		22.037E-03
			34.00		21.575E-03
			34.50		21.247E-03
			35.00		20.920E-03
			35.50		20.505E-03
			36.00		20.089E-03
			36.50		19.749E-03
			37.00		19.409E-03
			37.50		19.126E-03
			38.00		18.842E-03
			38.50		18.615E-03
			39.00		18.388E-03
			39.50		18.071E-03
			40.00		17.754E-03
			40.50		17.419E-03
			41.00		17.084E-03
			41.50		16.730E-03
			42.00		16.375E-03
			42.50		16.160E-03
			43.00		15.944E-03
			43.50		15.835E-03
			44.00		15.726E-03
			44.50		15.507E-03
			45.00		15.287E-03
			45.50		15.092E-03
			46.00		14.898E-03
			46.50		14.749E-03
			47.00		14.601E-03
			47.50		14.444E-03
			48.00		14.287E-03
			48.50		14.019E-03
			49.00		13.751E-03
			49.50		13.482E-03
			50.00		13.214E-03
			50.50		13.118E-03
			51.00		13.022E-03
			51.50		12.829E-03
			52.00		12.636E-03
			52.50		12.514E-03
			53.00		12.393E-03
			53.50		12.200E-03
			54.00		12.007E-03
			54.50		11.830E-03
			55.00		11.652E-03
			55.50		11.645E-03
			56.00		11.638E-03
			56.50		11.461E-03
			57.00		11.284E-03
			57.50		11.100E-03
			58.00		10.917E-03
			58.50		10.839E-03
			59.00		10.762E-03
			59.50		10.729E-03
			60.00		10.696E-03
		END_DATA
	END_SCAN  5
END_SCAN_DATA
