BEGIN_SCAN_DATA
	FORMAT=CC-Export V1.9                  
	FILE_CREATION_DATE=26-Jul-2022 10:32:49
	LAST_MODIFIED=26-Jul-2022 10:32:49
	BEGIN_SCAN  1
		TASK_NAME=tba PDD Profiles
		PROGRAM=WaterTankScans
		COMMENT=5x X
		MEAS_DATE=08-Feb-2021 10:36:58
		LINAC=TRUEBEAMSN4791
		MODALITY=X
		ISOCENTER=1000.00
		INPLANE_AXIS=Y
		CROSSPLANE_AXIS=X
		DEPTH_AXIS=Depth
		INPLANE_AXIS_DIR=TARGET_GUN
		CROSSPLANE_AXIS_DIR=LEFT_RIGHT
		DEPTH_AXIS_DIR=UP_DOWN
		ENERGY=6.00
		NOMINAL_DMAX=15.00
		SSD=900.00
		SCD=450.00
		WEDGE_ANGLE=0.00
		FIELD_INPLANE=400.00
		FIELD_CROSSPLANE=400.00
		FIELD_TYPE=RECTANGULAR
		GANTRY=0.00
		GANTRY_UPRIGHT_POSITION=0
		GANTRY_ROTATION=CW
		COLL_ANGLE=0.00
		COLL_OFFSET_INPLANE=0.00
		COLL_OFFSET_CROSSPLANE=0.00
		SCAN_DEVICE=BeamScan
		SCAN_DEVICE_SETUP=BARA_LEFT_RIGHT
		ELECTROMETER=BeamScan
		RANGE_FIELD=LOW
		RANGE_REFERENCE=MEDIUM
		DETECTOR=THIMBLE_CHAMBER
		DETECTOR_SUBCODE=SEMIFLEX
		DETECTOR_RADIUS=2.40
		DETECTOR_NAME=PTW 31021 Semiflex 3D (1)
		DETECTOR_SN=142316
		DETECTOR_CALIBRATION=588000000.00
		DETECTOR_IS_CALIBRATED=1
		DETECTOR_REFERENCE=THIMBLE_CHAMBER
		DETECTOR_REFERENCE_SUBCODE=SEMIFLEX
		DETECTOR_REFERENCE_RADIUS=2.75
		DETECTOR_REFERENCE_NAME=PTW 31010 Semiflex (1)
		DETECTOR_REFERENCE_SN=ÃƒÆ’Ã‚Â¢ÃƒÂ¢Ã¢â‚¬Å¡Ã‚Â¬ÃƒÂ¢Ã¢â€šÂ¬
		DETECTOR_REFERENCE_IS_CALIBRATED=0
		DETECTOR_REFERENCE_CALIBRATION=303000000.00
		DETECTOR_HV=400.0
		DETECTOR_REFERENCE_HV=400.0
		DETECTOR_ORIENTATION=HORIZONTAL
		FILTER=FF
		SCAN_SPEED_PROFILE=12.50
		SCAN_PROF_SPEED_DEP=DEPTH
		SCAN_SPEED_PDD=0.00
		SCAN_PDD_SPEED_DEP=ENERGY
		DETECTOR_TYPE=T31021
		REF_FIELD_DEPTH=300.00
		REF_FIELD_DEFINED=ISOCENTER
		REF_FIELD_INPLANE=100.00
		REF_FIELD_CROSSPLANE=100.00
		REF_SCAN_POSITIONS=-85.00;-84.00;-83.00;-82.00;-81.00;-80.00;-79.00;-78.00;-77.00;-76.00;-75.00;-74.00;-73.00;-72.00;-71.00;-70.00;-69.00;-68.00;-67.00;-66.00;-65.00;-64.00;-63.00;-62.00;-61.00;-60.00;-59.00;-58.00;-57.00;-56.00;-55.00;-54.00;-53.00;-52.00;-51.00;-50.00;-49.00;-48.00;-47.00;-46.00;-45.00;-44.00;-43.00;-42.00;-41.00;-40.00;-39.00;-38.00;-37.00;-36.00;-35.00;-34.00;-33.00;-32.00;-31.00;-30.00;-29.00;-28.00;-27.00;-26.00;-25.00;-24.00;-23.00;-22.00;-21.00;-20.00;-19.00;-18.00;-17.00;-16.00;-15.00;-14.00;-13.00;-12.00;-11.00;-10.00;-9.00;-8.00;-7.00;-6.00;-5.00;-4.00;-3.00;-2.00;-1.00;0.00;1.00;2.00;3.00;4.00;5.00;6.00;7.00;8.00;9.00;10.00;11.00;12.00;13.00;14.00;15.00;16.00;17.00;18.00;19.00;20.00;21.00;22.00;23.00;24.00;25.00;26.00;27.00;28.00;29.00;30.00;31.00;32.00;33.00;34.00;35.00;36.00;37.00;38.00;39.00;40.00;41.00;42.00;43.00;44.00;45.00;46.00;47.00;48.00;49.00;50.00;51.00;52.00;53.00;54.00;55.00;56.00;57.00;58.00;59.00;60.00;61.00;62.00;63.00;64.00;65.00;66.00;67.00;68.00;69.00;70.00;71.00;72.00;73.00;74.00;75.00;76.00;77.00;78.00;79.00;80.00;81.00;82.00;83.00;84.00;85.00;
		REF_OVERSCAN_FACTOR=1.00
		SCAN_CURVETYPE=CROSSPLANE_PROFILE
		SCAN_DEPTH=15.00
		SCAN_OFFAXIS_INPLANE=0.00
		SCAN_OFFAXIS_CROSSPLANE=0.00
		SCAN_ANGLE=0.00
		SCAN_DIAGONAL=NOT_DIAGONAL
		SCAN_DIRECTION=POSITIVE
		MEAS_MEDIUM=WATER
		MEAS_PRESET=MEAS_CONTINUOUS_REFERENCE_SCAN
		MEAS_TIME=0.080
		MEAS_UNIT=A.U.
		INCLINATION_ANGLE=0.00
		PRESSURE=1013.25
		TEMPERATURE=20.00
		NORM_TEMPERATURE=20.00
		CORRECTION_FACTOR=1.0000
		EXPECTED_MAX_DOSE_RATE=3.00
		EPOM_DEPTH_SHIFT=0.2
		EPOM_MODE=SHIFT_PROTOCOL
		CORRECTIONS=SMOOTHED_CORR;CAX_CORR;SYMMETRY_CORR;INTERPOLATED_CORR;MODIFIED_CORR;
		BEGIN_DATA
			-214.00		48.664E-03
			-213.50		49.288E-03
			-213.00		49.912E-03
			-212.50		50.536E-03
			-212.00		51.160E-03
			-211.50		51.784E-03
			-211.00		52.408E-03
			-210.50		53.655E-03
			-210.00		54.903E-03
			-209.50		55.527E-03
			-209.00		56.151E-03
			-208.50		56.775E-03
			-208.00		57.399E-03
			-207.50		58.647E-03
			-207.00		59.894E-03
			-206.50		60.518E-03
			-206.00		61.142E-03
			-205.50		62.390E-03
			-205.00		63.638E-03
			-204.50		64.885E-03
			-204.00		66.133E-03
			-203.50		67.381E-03
			-203.00		68.629E-03
			-202.50		69.877E-03
			-202.00		71.125E-03
			-201.50		72.996E-03
			-201.00		74.868E-03
			-200.50		76.116E-03
			-200.00		77.364E-03
			-199.50		79.235E-03
			-199.00		81.107E-03
			-198.50		82.979E-03
			-198.00		84.850E-03
			-197.50		86.722E-03
			-197.00		88.594E-03
			-196.50		91.714E-03
			-196.00		94.833E-03
			-195.50		97.328E-03
			-195.00		99.824E-03
			-194.50		102.94E-03
			-194.00		106.06E-03
			-193.50		109.81E-03
			-193.00		113.55E-03
			-192.50		117.92E-03
			-192.00		122.28E-03
			-191.50		127.89E-03
			-191.00		133.51E-03
			-190.50		140.37E-03
			-190.00		147.24E-03
			-189.50		157.84E-03
			-189.00		168.45E-03
			-188.50		183.43E-03
			-188.00		198.40E-03
			-187.50		227.10E-03
			-187.00		255.80E-03
			-186.50		302.59E-03
			-186.00		349.38E-03
			-185.50		408.03E-03
			-185.00		466.68E-03
			-184.50		534.06E-03
			-184.00		601.44E-03
			-183.50		676.93E-03
			-183.00		752.42E-03
			-182.50		825.42E-03
			-182.00		898.42E-03
			-181.50		960.81E-03
			-181.00		1.0232E+00
			-180.50		1.0731E+00
			-180.00		1.1230E+00
			-179.50		1.1579E+00
			-179.00		1.1929E+00
			-178.50		1.2128E+00
			-178.00		1.2328E+00
			-177.50		1.2441E+00
			-177.00		1.2553E+00
			-176.50		1.2622E+00
			-176.00		1.2690E+00
			-175.50		1.2734E+00
			-175.00		1.2777E+00
			-174.50		1.2808E+00
			-174.00		1.2840E+00
			-173.50		1.2865E+00
			-173.00		1.2890E+00
			-172.50		1.2909E+00
			-172.00		1.2927E+00
			-171.50		1.2946E+00
			-171.00		1.2965E+00
			-170.50		1.2977E+00
			-170.00		1.2990E+00
			-169.50		1.2996E+00
			-169.00		1.3002E+00
			-168.50		1.3008E+00
			-168.00		1.3015E+00
			-167.50		1.3021E+00
			-167.00		1.3027E+00
			-166.50		1.3033E+00
			-166.00		1.3040E+00
			-165.50		1.3046E+00
			-165.00		1.3052E+00
			-164.50		1.3052E+00
			-164.00		1.3052E+00
			-163.50		1.3058E+00
			-163.00		1.3064E+00
			-162.50		1.3064E+00
			-162.00		1.3064E+00
			-161.50		1.3070E+00
			-161.00		1.3077E+00
			-160.50		1.3077E+00
			-160.00		1.3077E+00
			-159.50		1.3077E+00
			-159.00		1.3077E+00
			-158.50		1.3083E+00
			-158.00		1.3089E+00
			-157.50		1.3089E+00
			-157.00		1.3089E+00
			-156.50		1.3089E+00
			-156.00		1.3089E+00
			-155.50		1.3096E+00
			-155.00		1.3102E+00
			-154.50		1.3108E+00
			-154.00		1.3114E+00
			-153.50		1.3114E+00
			-153.00		1.3114E+00
			-152.50		1.3114E+00
			-152.00		1.3114E+00
			-151.50		1.3114E+00
			-151.00		1.3114E+00
			-150.50		1.3114E+00
			-150.00		1.3114E+00
			-149.50		1.3114E+00
			-149.00		1.3114E+00
			-148.50		1.3114E+00
			-148.00		1.3114E+00
			-147.50		1.3114E+00
			-147.00		1.3114E+00
			-146.50		1.3114E+00
			-146.00		1.3114E+00
			-145.50		1.3114E+00
			-145.00		1.3114E+00
			-144.50		1.3114E+00
			-144.00		1.3114E+00
			-143.50		1.3121E+00
			-143.00		1.3127E+00
			-142.50		1.3127E+00
			-142.00		1.3127E+00
			-141.50		1.3121E+00
			-141.00		1.3114E+00
			-140.50		1.3114E+00
			-140.00		1.3114E+00
			-139.50		1.3114E+00
			-139.00		1.3114E+00
			-138.50		1.3114E+00
			-138.00		1.3114E+00
			-137.50		1.3114E+00
			-137.00		1.3114E+00
			-136.50		1.3114E+00
			-136.00		1.3114E+00
			-135.50		1.3114E+00
			-135.00		1.3114E+00
			-134.50		1.3114E+00
			-134.00		1.3114E+00
			-133.50		1.3114E+00
			-133.00		1.3114E+00
			-132.50		1.3108E+00
			-132.00		1.3102E+00
			-131.50		1.3102E+00
			-131.00		1.3102E+00
			-130.50		1.3108E+00
			-130.00		1.3114E+00
			-129.50		1.3114E+00
			-129.00		1.3114E+00
			-128.50		1.3114E+00
			-128.00		1.3114E+00
			-127.50		1.3108E+00
			-127.00		1.3102E+00
			-126.50		1.3102E+00
			-126.00		1.3102E+00
			-125.50		1.3102E+00
			-125.00		1.3102E+00
			-124.50		1.3096E+00
			-124.00		1.3089E+00
			-123.50		1.3089E+00
			-123.00		1.3089E+00
			-122.50		1.3089E+00
			-122.00		1.3089E+00
			-121.50		1.3089E+00
			-121.00		1.3089E+00
			-120.50		1.3083E+00
			-120.00		1.3077E+00
			-119.50		1.3077E+00
			-119.00		1.3077E+00
			-118.50		1.3077E+00
			-118.00		1.3077E+00
			-117.50		1.3070E+00
			-117.00		1.3064E+00
			-116.50		1.3064E+00
			-116.00		1.3064E+00
			-115.50		1.3058E+00
			-115.00		1.3052E+00
			-114.50		1.3052E+00
			-114.00		1.3052E+00
			-113.50		1.3052E+00
			-113.00		1.3052E+00
			-112.50		1.3052E+00
			-112.00		1.3052E+00
			-111.50		1.3052E+00
			-111.00		1.3052E+00
			-110.50		1.3052E+00
			-110.00		1.3052E+00
			-109.50		1.3052E+00
			-109.00		1.3052E+00
			-108.50		1.3052E+00
			-108.00		1.3052E+00
			-107.50		1.3052E+00
			-107.00		1.3052E+00
			-106.50		1.3046E+00
			-106.00		1.3040E+00
			-105.50		1.3033E+00
			-105.00		1.3027E+00
			-104.50		1.3027E+00
			-104.00		1.3027E+00
			-103.50		1.3027E+00
			-103.00		1.3027E+00
			-102.50		1.3027E+00
			-102.00		1.3027E+00
			-101.50		1.3027E+00
			-101.00		1.3027E+00
			-100.50		1.3021E+00
			-100.00		1.3015E+00
			-99.50		1.3015E+00
			-99.00		1.3015E+00
			-98.50		1.3015E+00
			-98.00		1.3015E+00
			-97.50		1.3015E+00
			-97.00		1.3015E+00
			-96.50		1.3008E+00
			-96.00		1.3002E+00
			-95.50		1.3002E+00
			-95.00		1.3002E+00
			-94.50		1.3002E+00
			-94.00		1.3002E+00
			-93.50		1.3002E+00
			-93.00		1.3002E+00
			-92.50		1.3002E+00
			-92.00		1.3002E+00
			-91.50		1.3002E+00
			-91.00		1.3002E+00
			-90.50		1.2996E+00
			-90.00		1.2990E+00
			-89.50		1.2990E+00
			-89.00		1.2990E+00
			-88.50		1.2984E+00
			-88.00		1.2977E+00
			-87.50		1.2977E+00
			-87.00		1.2977E+00
			-86.50		1.2977E+00
			-86.00		1.2977E+00
			-85.50		1.2971E+00
			-85.00		1.2965E+00
			-84.50		1.2965E+00
			-84.00		1.2965E+00
			-83.50		1.2959E+00
			-83.00		1.2952E+00
			-82.50		1.2952E+00
			-82.00		1.2952E+00
			-81.50		1.2952E+00
			-81.00		1.2952E+00
			-80.50		1.2952E+00
			-80.00		1.2952E+00
			-79.50		1.2946E+00
			-79.00		1.2940E+00
			-78.50		1.2940E+00
			-78.00		1.2940E+00
			-77.50		1.2940E+00
			-77.00		1.2940E+00
			-76.50		1.2940E+00
			-76.00		1.2940E+00
			-75.50		1.2933E+00
			-75.00		1.2927E+00
			-74.50		1.2927E+00
			-74.00		1.2927E+00
			-73.50		1.2927E+00
			-73.00		1.2927E+00
			-72.50		1.2921E+00
			-72.00		1.2915E+00
			-71.50		1.2915E+00
			-71.00		1.2915E+00
			-70.50		1.2908E+00
			-70.00		1.2902E+00
			-69.50		1.2902E+00
			-69.00		1.2902E+00
			-68.50		1.2902E+00
			-68.00		1.2902E+00
			-67.50		1.2902E+00
			-67.00		1.2902E+00
			-66.50		1.2896E+00
			-66.00		1.2890E+00
			-65.50		1.2890E+00
			-65.00		1.2890E+00
			-64.50		1.2890E+00
			-64.00		1.2890E+00
			-63.50		1.2890E+00
			-63.00		1.2890E+00
			-62.50		1.2890E+00
			-62.00		1.2890E+00
			-61.50		1.2890E+00
			-61.00		1.2890E+00
			-60.50		1.2884E+00
			-60.00		1.2877E+00
			-59.50		1.2877E+00
			-59.00		1.2877E+00
			-58.50		1.2871E+00
			-58.00		1.2865E+00
			-57.50		1.2865E+00
			-57.00		1.2865E+00
			-56.50		1.2859E+00
			-56.00		1.2852E+00
			-55.50		1.2852E+00
			-55.00		1.2852E+00
			-54.50		1.2852E+00
			-54.00		1.2852E+00
			-53.50		1.2846E+00
			-53.00		1.2840E+00
			-52.50		1.2833E+00
			-52.00		1.2827E+00
			-51.50		1.2827E+00
			-51.00		1.2827E+00
			-50.50		1.2821E+00
			-50.00		1.2815E+00
			-49.50		1.2808E+00
			-49.00		1.2802E+00
			-48.50		1.2802E+00
			-48.00		1.2802E+00
			-47.50		1.2802E+00
			-47.00		1.2802E+00
			-46.50		1.2796E+00
			-46.00		1.2790E+00
			-45.50		1.2783E+00
			-45.00		1.2777E+00
			-44.50		1.2777E+00
			-44.00		1.2777E+00
			-43.50		1.2771E+00
			-43.00		1.2765E+00
			-42.50		1.2765E+00
			-42.00		1.2765E+00
			-41.50		1.2759E+00
			-41.00		1.2753E+00
			-40.50		1.2747E+00
			-40.00		1.2740E+00
			-39.50		1.2734E+00
			-39.00		1.2728E+00
			-38.50		1.2722E+00
			-38.00		1.2715E+00
			-37.50		1.2709E+00
			-37.00		1.2703E+00
			-36.50		1.2696E+00
			-36.00		1.2690E+00
			-35.50		1.2690E+00
			-35.00		1.2690E+00
			-34.50		1.2684E+00
			-34.00		1.2678E+00
			-33.50		1.2671E+00
			-33.00		1.2665E+00
			-32.50		1.2665E+00
			-32.00		1.2665E+00
			-31.50		1.2659E+00
			-31.00		1.2653E+00
			-30.50		1.2647E+00
			-30.00		1.2640E+00
			-29.50		1.2640E+00
			-29.00		1.2640E+00
			-28.50		1.2640E+00
			-28.00		1.2640E+00
			-27.50		1.2640E+00
			-27.00		1.2640E+00
			-26.50		1.2640E+00
			-26.00		1.2640E+00
			-25.50		1.2634E+00
			-25.00		1.2628E+00
			-24.50		1.2622E+00
			-24.00		1.2615E+00
			-23.50		1.2615E+00
			-23.00		1.2615E+00
			-22.50		1.2609E+00
			-22.00		1.2603E+00
			-21.50		1.2603E+00
			-21.00		1.2603E+00
			-20.50		1.2603E+00
			-20.00		1.2603E+00
			-19.50		1.2596E+00
			-19.00		1.2590E+00
			-18.50		1.2590E+00
			-18.00		1.2590E+00
			-17.50		1.2584E+00
			-17.00		1.2578E+00
			-16.50		1.2571E+00
			-16.00		1.2565E+00
			-15.50		1.2565E+00
			-15.00		1.2565E+00
			-14.50		1.2559E+00
			-14.00		1.2553E+00
			-13.50		1.2553E+00
			-13.00		1.2553E+00
			-12.50		1.2553E+00
			-12.00		1.2553E+00
			-11.50		1.2553E+00
			-11.00		1.2553E+00
			-10.50		1.2546E+00
			-10.00		1.2540E+00
			-9.50		1.2540E+00
			-9.00		1.2540E+00
			-8.50		1.2540E+00
			-8.00		1.2540E+00
			-7.50		1.2534E+00
			-7.00		1.2528E+00
			-6.50		1.2522E+00
			-6.00		1.2515E+00
			-5.50		1.2509E+00
			-5.00		1.2503E+00
			-4.50		1.2497E+00
			-4.00		1.2490E+00
			-3.50		1.2484E+00
			-3.00		1.2478E+00
			-2.50		1.2478E+00
			-2.00		1.2478E+00
			-1.50		1.2478E+00
			-1.00		1.2478E+00
			-0.50		1.2478E+00
			0.00		1.2478E+00
			0.50		1.2478E+00
			1.00		1.2478E+00
			1.50		1.2478E+00
			2.00		1.2478E+00
			2.50		1.2478E+00
			3.00		1.2478E+00
			3.50		1.2484E+00
			4.00		1.2490E+00
			4.50		1.2497E+00
			5.00		1.2503E+00
			5.50		1.2509E+00
			6.00		1.2515E+00
			6.50		1.2522E+00
			7.00		1.2528E+00
			7.50		1.2534E+00
			8.00		1.2540E+00
			8.50		1.2540E+00
			9.00		1.2540E+00
			9.50		1.2540E+00
			10.00		1.2540E+00
			10.50		1.2546E+00
			11.00		1.2553E+00
			11.50		1.2553E+00
			12.00		1.2553E+00
			12.50		1.2553E+00
			13.00		1.2553E+00
			13.50		1.2553E+00
			14.00		1.2553E+00
			14.50		1.2559E+00
			15.00		1.2565E+00
			15.50		1.2565E+00
			16.00		1.2565E+00
			16.50		1.2571E+00
			17.00		1.2578E+00
			17.50		1.2584E+00
			18.00		1.2590E+00
			18.50		1.2590E+00
			19.00		1.2590E+00
			19.50		1.2596E+00
			20.00		1.2603E+00
			20.50		1.2603E+00
			21.00		1.2603E+00
			21.50		1.2603E+00
			22.00		1.2603E+00
			22.50		1.2609E+00
			23.00		1.2615E+00
			23.50		1.2615E+00
			24.00		1.2615E+00
			24.50		1.2622E+00
			25.00		1.2628E+00
			25.50		1.2634E+00
			26.00		1.2640E+00
			26.50		1.2640E+00
			27.00		1.2640E+00
			27.50		1.2640E+00
			28.00		1.2640E+00
			28.50		1.2640E+00
			29.00		1.2640E+00
			29.50		1.2640E+00
			30.00		1.2640E+00
			30.50		1.2647E+00
			31.00		1.2653E+00
			31.50		1.2659E+00
			32.00		1.2665E+00
			32.50		1.2665E+00
			33.00		1.2665E+00
			33.50		1.2671E+00
			34.00		1.2678E+00
			34.50		1.2684E+00
			35.00		1.2690E+00
			35.50		1.2690E+00
			36.00		1.2690E+00
			36.50		1.2696E+00
			37.00		1.2703E+00
			37.50		1.2709E+00
			38.00		1.2715E+00
			38.50		1.2722E+00
			39.00		1.2728E+00
			39.50		1.2734E+00
			40.00		1.2740E+00
			40.50		1.2747E+00
			41.00		1.2753E+00
			41.50		1.2759E+00
			42.00		1.2765E+00
			42.50		1.2765E+00
			43.00		1.2765E+00
			43.50		1.2771E+00
			44.00		1.2777E+00
			44.50		1.2777E+00
			45.00		1.2777E+00
			45.50		1.2783E+00
			46.00		1.2790E+00
			46.50		1.2796E+00
			47.00		1.2802E+00
			47.50		1.2802E+00
			48.00		1.2802E+00
			48.50		1.2802E+00
			49.00		1.2802E+00
			49.50		1.2808E+00
			50.00		1.2815E+00
			50.50		1.2821E+00
			51.00		1.2827E+00
			51.50		1.2827E+00
			52.00		1.2827E+00
			52.50		1.2833E+00
			53.00		1.2840E+00
			53.50		1.2846E+00
			54.00		1.2852E+00
			54.50		1.2852E+00
			55.00		1.2852E+00
			55.50		1.2852E+00
			56.00		1.2852E+00
			56.50		1.2859E+00
			57.00		1.2865E+00
			57.50		1.2865E+00
			58.00		1.2865E+00
			58.50		1.2871E+00
			59.00		1.2877E+00
			59.50		1.2877E+00
			60.00		1.2877E+00
			60.50		1.2884E+00
			61.00		1.2890E+00
			61.50		1.2890E+00
			62.00		1.2890E+00
			62.50		1.2890E+00
			63.00		1.2890E+00
			63.50		1.2890E+00
			64.00		1.2890E+00
			64.50		1.2890E+00
			65.00		1.2890E+00
			65.50		1.2890E+00
			66.00		1.2890E+00
			66.50		1.2896E+00
			67.00		1.2902E+00
			67.50		1.2902E+00
			68.00		1.2902E+00
			68.50		1.2902E+00
			69.00		1.2902E+00
			69.50		1.2902E+00
			70.00		1.2902E+00
			70.50		1.2908E+00
			71.00		1.2915E+00
			71.50		1.2915E+00
			72.00		1.2915E+00
			72.50		1.2921E+00
			73.00		1.2927E+00
			73.50		1.2927E+00
			74.00		1.2927E+00
			74.50		1.2927E+00
			75.00		1.2927E+00
			75.50		1.2933E+00
			76.00		1.2940E+00
			76.50		1.2940E+00
			77.00		1.2940E+00
			77.50		1.2940E+00
			78.00		1.2940E+00
			78.50		1.2940E+00
			79.00		1.2940E+00
			79.50		1.2946E+00
			80.00		1.2952E+00
			80.50		1.2952E+00
			81.00		1.2952E+00
			81.50		1.2952E+00
			82.00		1.2952E+00
			82.50		1.2952E+00
			83.00		1.2952E+00
			83.50		1.2959E+00
			84.00		1.2965E+00
			84.50		1.2965E+00
			85.00		1.2965E+00
			85.50		1.2971E+00
			86.00		1.2977E+00
			86.50		1.2977E+00
			87.00		1.2977E+00
			87.50		1.2977E+00
			88.00		1.2977E+00
			88.50		1.2984E+00
			89.00		1.2990E+00
			89.50		1.2990E+00
			90.00		1.2990E+00
			90.50		1.2996E+00
			91.00		1.3002E+00
			91.50		1.3002E+00
			92.00		1.3002E+00
			92.50		1.3002E+00
			93.00		1.3002E+00
			93.50		1.3002E+00
			94.00		1.3002E+00
			94.50		1.3002E+00
			95.00		1.3002E+00
			95.50		1.3002E+00
			96.00		1.3002E+00
			96.50		1.3008E+00
			97.00		1.3015E+00
			97.50		1.3015E+00
			98.00		1.3015E+00
			98.50		1.3015E+00
			99.00		1.3015E+00
			99.50		1.3015E+00
			100.00		1.3015E+00
			100.50		1.3021E+00
			101.00		1.3027E+00
			101.50		1.3027E+00
			102.00		1.3027E+00
			102.50		1.3027E+00
			103.00		1.3027E+00
			103.50		1.3027E+00
			104.00		1.3027E+00
			104.50		1.3027E+00
			105.00		1.3027E+00
			105.50		1.3033E+00
			106.00		1.3040E+00
			106.50		1.3046E+00
			107.00		1.3052E+00
			107.50		1.3052E+00
			108.00		1.3052E+00
			108.50		1.3052E+00
			109.00		1.3052E+00
			109.50		1.3052E+00
			110.00		1.3052E+00
			110.50		1.3052E+00
			111.00		1.3052E+00
			111.50		1.3052E+00
			112.00		1.3052E+00
			112.50		1.3052E+00
			113.00		1.3052E+00
			113.50		1.3052E+00
			114.00		1.3052E+00
			114.50		1.3052E+00
			115.00		1.3052E+00
			115.50		1.3058E+00
			116.00		1.3064E+00
			116.50		1.3064E+00
			117.00		1.3064E+00
			117.50		1.3070E+00
			118.00		1.3077E+00
			118.50		1.3077E+00
			119.00		1.3077E+00
			119.50		1.3077E+00
			120.00		1.3077E+00
			120.50		1.3083E+00
			121.00		1.3089E+00
			121.50		1.3089E+00
			122.00		1.3089E+00
			122.50		1.3089E+00
			123.00		1.3089E+00
			123.50		1.3089E+00
			124.00		1.3089E+00
			124.50		1.3096E+00
			125.00		1.3102E+00
			125.50		1.3102E+00
			126.00		1.3102E+00
			126.50		1.3102E+00
			127.00		1.3102E+00
			127.50		1.3108E+00
			128.00		1.3114E+00
			128.50		1.3114E+00
			129.00		1.3114E+00
			129.50		1.3114E+00
			130.00		1.3114E+00
			130.50		1.3108E+00
			131.00		1.3102E+00
			131.50		1.3102E+00
			132.00		1.3102E+00
			132.50		1.3108E+00
			133.00		1.3114E+00
			133.50		1.3114E+00
			134.00		1.3114E+00
			134.50		1.3114E+00
			135.00		1.3114E+00
			135.50		1.3114E+00
			136.00		1.3114E+00
			136.50		1.3114E+00
			137.00		1.3114E+00
			137.50		1.3114E+00
			138.00		1.3114E+00
			138.50		1.3114E+00
			139.00		1.3114E+00
			139.50		1.3114E+00
			140.00		1.3114E+00
			140.50		1.3114E+00
			141.00		1.3114E+00
			141.50		1.3121E+00
			142.00		1.3127E+00
			142.50		1.3127E+00
			143.00		1.3127E+00
			143.50		1.3121E+00
			144.00		1.3114E+00
			144.50		1.3114E+00
			145.00		1.3114E+00
			145.50		1.3114E+00
			146.00		1.3114E+00
			146.50		1.3114E+00
			147.00		1.3114E+00
			147.50		1.3114E+00
			148.00		1.3114E+00
			148.50		1.3114E+00
			149.00		1.3114E+00
			149.50		1.3114E+00
			150.00		1.3114E+00
			150.50		1.3114E+00
			151.00		1.3114E+00
			151.50		1.3114E+00
			152.00		1.3114E+00
			152.50		1.3114E+00
			153.00		1.3114E+00
			153.50		1.3114E+00
			154.00		1.3114E+00
			154.50		1.3108E+00
			155.00		1.3102E+00
			155.50		1.3096E+00
			156.00		1.3089E+00
			156.50		1.3089E+00
			157.00		1.3089E+00
			157.50		1.3089E+00
			158.00		1.3089E+00
			158.50		1.3083E+00
			159.00		1.3077E+00
			159.50		1.3077E+00
			160.00		1.3077E+00
			160.50		1.3077E+00
			161.00		1.3077E+00
			161.50		1.3070E+00
			162.00		1.3064E+00
			162.50		1.3064E+00
			163.00		1.3064E+00
			163.50		1.3058E+00
			164.00		1.3052E+00
			164.50		1.3052E+00
			165.00		1.3052E+00
			165.50		1.3046E+00
			166.00		1.3040E+00
			166.50		1.3033E+00
			167.00		1.3027E+00
			167.50		1.3021E+00
			168.00		1.3015E+00
			168.50		1.3008E+00
			169.00		1.3002E+00
			169.50		1.2996E+00
			170.00		1.2990E+00
			170.50		1.2977E+00
			171.00		1.2965E+00
			171.50		1.2946E+00
			172.00		1.2927E+00
			172.50		1.2909E+00
			173.00		1.2890E+00
			173.50		1.2865E+00
			174.00		1.2840E+00
			174.50		1.2808E+00
			175.00		1.2777E+00
			175.50		1.2734E+00
			176.00		1.2690E+00
			176.50		1.2622E+00
			177.00		1.2553E+00
			177.50		1.2441E+00
			178.00		1.2328E+00
			178.50		1.2128E+00
			179.00		1.1929E+00
			179.50		1.1579E+00
			180.00		1.1230E+00
			180.50		1.0731E+00
			181.00		1.0232E+00
			181.50		960.81E-03
			182.00		898.42E-03
			182.50		825.42E-03
			183.00		752.42E-03
			183.50		676.93E-03
			184.00		601.44E-03
			184.50		534.06E-03
			185.00		466.68E-03
			185.50		408.03E-03
			186.00		349.38E-03
			186.50		302.59E-03
			187.00		255.80E-03
			187.50		227.10E-03
			188.00		198.40E-03
			188.50		183.43E-03
			189.00		168.45E-03
			189.50		157.84E-03
			190.00		147.24E-03
			190.50		140.37E-03
			191.00		133.51E-03
			191.50		127.89E-03
			192.00		122.28E-03
			192.50		117.92E-03
			193.00		113.55E-03
			193.50		109.81E-03
			194.00		106.06E-03
			194.50		102.94E-03
			195.00		99.824E-03
			195.50		97.328E-03
			196.00		94.833E-03
			196.50		91.714E-03
			197.00		88.594E-03
			197.50		86.722E-03
			198.00		84.850E-03
			198.50		82.979E-03
			199.00		81.107E-03
			199.50		79.235E-03
			200.00		77.364E-03
			200.50		76.116E-03
			201.00		74.868E-03
			201.50		72.996E-03
			202.00		71.125E-03
			202.50		69.877E-03
			203.00		68.629E-03
			203.50		67.381E-03
			204.00		66.133E-03
			204.50		64.885E-03
			205.00		63.638E-03
			205.50		62.390E-03
			206.00		61.142E-03
			206.50		60.518E-03
			207.00		59.894E-03
			207.50		58.647E-03
			208.00		57.399E-03
			208.50		56.775E-03
			209.00		56.151E-03
			209.50		55.527E-03
			210.00		54.903E-03
			210.50		53.655E-03
			211.00		52.408E-03
			211.50		51.784E-03
			212.00		51.160E-03
			212.50		50.536E-03
			213.00		49.912E-03
			213.50		49.288E-03
			214.00		48.664E-03
		END_DATA
	END_SCAN  1
	BEGIN_SCAN  2
		TASK_NAME=tba PDD Profiles
		PROGRAM=WaterTankScans
		COMMENT=5x X
		MEAS_DATE=08-Feb-2021 10:37:35
		LINAC=TRUEBEAMSN4791
		MODALITY=X
		ISOCENTER=1000.00
		INPLANE_AXIS=Y
		CROSSPLANE_AXIS=X
		DEPTH_AXIS=Depth
		INPLANE_AXIS_DIR=TARGET_GUN
		CROSSPLANE_AXIS_DIR=LEFT_RIGHT
		DEPTH_AXIS_DIR=UP_DOWN
		ENERGY=6.00
		NOMINAL_DMAX=15.00
		SSD=900.00
		SCD=450.00
		WEDGE_ANGLE=0.00
		FIELD_INPLANE=400.00
		FIELD_CROSSPLANE=400.00
		FIELD_TYPE=RECTANGULAR
		GANTRY=0.00
		GANTRY_UPRIGHT_POSITION=0
		GANTRY_ROTATION=CW
		COLL_ANGLE=0.00
		COLL_OFFSET_INPLANE=0.00
		COLL_OFFSET_CROSSPLANE=0.00
		SCAN_DEVICE=BeamScan
		SCAN_DEVICE_SETUP=BARA_LEFT_RIGHT
		ELECTROMETER=BeamScan
		RANGE_FIELD=LOW
		RANGE_REFERENCE=MEDIUM
		DETECTOR=THIMBLE_CHAMBER
		DETECTOR_SUBCODE=SEMIFLEX
		DETECTOR_RADIUS=2.40
		DETECTOR_NAME=PTW 31021 Semiflex 3D (1)
		DETECTOR_SN=142316
		DETECTOR_CALIBRATION=588000000.00
		DETECTOR_IS_CALIBRATED=1
		DETECTOR_REFERENCE=THIMBLE_CHAMBER
		DETECTOR_REFERENCE_SUBCODE=SEMIFLEX
		DETECTOR_REFERENCE_RADIUS=2.75
		DETECTOR_REFERENCE_NAME=PTW 31010 Semiflex (1)
		DETECTOR_REFERENCE_SN=ÃƒÆ’Ã‚Â¢ÃƒÂ¢Ã¢â‚¬Å¡Ã‚Â¬ÃƒÂ¢Ã¢â€šÂ¬
		DETECTOR_REFERENCE_IS_CALIBRATED=0
		DETECTOR_REFERENCE_CALIBRATION=303000000.00
		DETECTOR_HV=400.0
		DETECTOR_REFERENCE_HV=400.0
		DETECTOR_ORIENTATION=HORIZONTAL
		FILTER=FF
		SCAN_SPEED_PROFILE=12.50
		SCAN_PROF_SPEED_DEP=DEPTH
		SCAN_SPEED_PDD=0.00
		SCAN_PDD_SPEED_DEP=ENERGY
		DETECTOR_TYPE=T31021
		REF_FIELD_DEPTH=300.00
		REF_FIELD_DEFINED=ISOCENTER
		REF_FIELD_INPLANE=100.00
		REF_FIELD_CROSSPLANE=100.00
		REF_SCAN_POSITIONS=-85.00;-84.00;-83.00;-82.00;-81.00;-80.00;-79.00;-78.00;-77.00;-76.00;-75.00;-74.00;-73.00;-72.00;-71.00;-70.00;-69.00;-68.00;-67.00;-66.00;-65.00;-64.00;-63.00;-62.00;-61.00;-60.00;-59.00;-58.00;-57.00;-56.00;-55.00;-54.00;-53.00;-52.00;-51.00;-50.00;-49.00;-48.00;-47.00;-46.00;-45.00;-44.00;-43.00;-42.00;-41.00;-40.00;-39.00;-38.00;-37.00;-36.00;-35.00;-34.00;-33.00;-32.00;-31.00;-30.00;-29.00;-28.00;-27.00;-26.00;-25.00;-24.00;-23.00;-22.00;-21.00;-20.00;-19.00;-18.00;-17.00;-16.00;-15.00;-14.00;-13.00;-12.00;-11.00;-10.00;-9.00;-8.00;-7.00;-6.00;-5.00;-4.00;-3.00;-2.00;-1.00;0.00;1.00;2.00;3.00;4.00;5.00;6.00;7.00;8.00;9.00;10.00;11.00;12.00;13.00;14.00;15.00;16.00;17.00;18.00;19.00;20.00;21.00;22.00;23.00;24.00;25.00;26.00;27.00;28.00;29.00;30.00;31.00;32.00;33.00;34.00;35.00;36.00;37.00;38.00;39.00;40.00;41.00;42.00;43.00;44.00;45.00;46.00;47.00;48.00;49.00;50.00;51.00;52.00;53.00;54.00;55.00;56.00;57.00;58.00;59.00;60.00;61.00;62.00;63.00;64.00;65.00;66.00;67.00;68.00;69.00;70.00;71.00;72.00;73.00;74.00;75.00;76.00;77.00;78.00;79.00;80.00;81.00;82.00;83.00;84.00;85.00;
		REF_OVERSCAN_FACTOR=1.00
		SCAN_CURVETYPE=CROSSPLANE_PROFILE
		SCAN_DEPTH=50.00
		SCAN_OFFAXIS_INPLANE=0.00
		SCAN_OFFAXIS_CROSSPLANE=0.00
		SCAN_ANGLE=0.00
		SCAN_DIAGONAL=NOT_DIAGONAL
		SCAN_DIRECTION=NEGATIVE
		MEAS_MEDIUM=WATER
		MEAS_PRESET=MEAS_CONTINUOUS_REFERENCE_SCAN
		MEAS_TIME=0.080
		MEAS_UNIT=A.U.
		INCLINATION_ANGLE=0.00
		PRESSURE=1013.25
		TEMPERATURE=20.00
		NORM_TEMPERATURE=20.00
		CORRECTION_FACTOR=1.0000
		EXPECTED_MAX_DOSE_RATE=3.00
		EPOM_DEPTH_SHIFT=0.2
		EPOM_MODE=SHIFT_PROTOCOL
		CORRECTIONS=SMOOTHED_CORR;CAX_CORR;SYMMETRY_CORR;INTERPOLATED_CORR;
		BEGIN_DATA
			-224.00		63.318E-03
			-223.50		64.101E-03
			-223.00		64.884E-03
			-222.50		65.623E-03
			-222.00		66.363E-03
			-221.50		67.087E-03
			-221.00		67.810E-03
			-220.50		68.615E-03
			-220.00		69.420E-03
			-219.50		70.339E-03
			-219.00		71.257E-03
			-218.50		72.190E-03
			-218.00		73.122E-03
			-217.50		74.098E-03
			-217.00		75.075E-03
			-216.50		76.090E-03
			-216.00		77.106E-03
			-215.50		78.164E-03
			-215.00		79.221E-03
			-214.50		80.388E-03
			-214.00		81.555E-03
			-213.50		82.629E-03
			-213.00		83.702E-03
			-212.50		85.132E-03
			-212.00		86.562E-03
			-211.50		88.039E-03
			-211.00		89.515E-03
			-210.50		91.053E-03
			-210.00		92.591E-03
			-209.50		94.202E-03
			-209.00		95.813E-03
			-208.50		97.352E-03
			-208.00		98.891E-03
			-207.50		100.53E-03
			-207.00		102.16E-03
			-206.50		103.90E-03
			-206.00		105.65E-03
			-205.50		107.57E-03
			-205.00		109.49E-03
			-204.50		111.91E-03
			-204.00		114.32E-03
			-203.50		116.80E-03
			-203.00		119.28E-03
			-202.50		121.81E-03
			-202.00		124.34E-03
			-201.50		127.27E-03
			-201.00		130.20E-03
			-200.50		133.52E-03
			-200.00		136.84E-03
			-199.50		140.63E-03
			-199.00		144.42E-03
			-198.50		149.33E-03
			-198.00		154.24E-03
			-197.50		160.41E-03
			-197.00		166.59E-03
			-196.50		174.98E-03
			-196.00		183.38E-03
			-195.50		195.94E-03
			-195.00		208.50E-03
			-194.50		230.36E-03
			-194.00		252.22E-03
			-193.50		287.24E-03
			-193.00		322.25E-03
			-192.50		366.47E-03
			-192.00		410.70E-03
			-191.50		461.56E-03
			-191.00		512.42E-03
			-190.50		568.54E-03
			-190.00		624.66E-03
			-189.50		678.40E-03
			-189.00		732.14E-03
			-188.50		779.06E-03
			-188.00		825.98E-03
			-187.50		864.44E-03
			-187.00		902.91E-03
			-186.50		930.43E-03
			-186.00		957.95E-03
			-185.50		973.94E-03
			-185.00		989.93E-03
			-184.50		999.61E-03
			-184.00		1.0093E+00
			-183.50		1.0158E+00
			-183.00		1.0223E+00
			-182.50		1.0271E+00
			-182.00		1.0318E+00
			-181.50		1.0358E+00
			-181.00		1.0397E+00
			-180.50		1.0424E+00
			-180.00		1.0452E+00
			-179.50		1.0476E+00
			-179.00		1.0500E+00
			-178.50		1.0522E+00
			-178.00		1.0543E+00
			-177.50		1.0561E+00
			-177.00		1.0579E+00
			-176.50		1.0594E+00
			-176.00		1.0608E+00
			-175.50		1.0620E+00
			-175.00		1.0632E+00
			-174.50		1.0644E+00
			-174.00		1.0655E+00
			-173.50		1.0666E+00
			-173.00		1.0677E+00
			-172.50		1.0688E+00
			-172.00		1.0698E+00
			-171.50		1.0707E+00
			-171.00		1.0717E+00
			-170.50		1.0726E+00
			-170.00		1.0734E+00
			-169.50		1.0742E+00
			-169.00		1.0751E+00
			-168.50		1.0759E+00
			-168.00		1.0767E+00
			-167.50		1.0775E+00
			-167.00		1.0784E+00
			-166.50		1.0791E+00
			-166.00		1.0799E+00
			-165.50		1.0805E+00
			-165.00		1.0812E+00
			-164.50		1.0817E+00
			-164.00		1.0821E+00
			-163.50		1.0826E+00
			-163.00		1.0830E+00
			-162.50		1.0835E+00
			-162.00		1.0840E+00
			-161.50		1.0845E+00
			-161.00		1.0850E+00
			-160.50		1.0854E+00
			-160.00		1.0859E+00
			-159.50		1.0863E+00
			-159.00		1.0867E+00
			-158.50		1.0870E+00
			-158.00		1.0872E+00
			-157.50		1.0876E+00
			-157.00		1.0879E+00
			-156.50		1.0884E+00
			-156.00		1.0888E+00
			-155.50		1.0893E+00
			-155.00		1.0898E+00
			-154.50		1.0903E+00
			-154.00		1.0907E+00
			-153.50		1.0912E+00
			-153.00		1.0916E+00
			-152.50		1.0920E+00
			-152.00		1.0924E+00
			-151.50		1.0928E+00
			-151.00		1.0933E+00
			-150.50		1.0936E+00
			-150.00		1.0940E+00
			-149.50		1.0942E+00
			-149.00		1.0944E+00
			-148.50		1.0946E+00
			-148.00		1.0948E+00
			-147.50		1.0949E+00
			-147.00		1.0950E+00
			-146.50		1.0951E+00
			-146.00		1.0953E+00
			-145.50		1.0955E+00
			-145.00		1.0957E+00
			-144.50		1.0958E+00
			-144.00		1.0960E+00
			-143.50		1.0961E+00
			-143.00		1.0963E+00
			-142.50		1.0965E+00
			-142.00		1.0967E+00
			-141.50		1.0970E+00
			-141.00		1.0973E+00
			-140.50		1.0975E+00
			-140.00		1.0976E+00
			-139.50		1.0977E+00
			-139.00		1.0978E+00
			-138.50		1.0979E+00
			-138.00		1.0979E+00
			-137.50		1.0980E+00
			-137.00		1.0981E+00
			-136.50		1.0983E+00
			-136.00		1.0985E+00
			-135.50		1.0987E+00
			-135.00		1.0990E+00
			-134.50		1.0992E+00
			-134.00		1.0995E+00
			-133.50		1.0996E+00
			-133.00		1.0998E+00
			-132.50		1.1000E+00
			-132.00		1.1001E+00
			-131.50		1.1002E+00
			-131.00		1.1003E+00
			-130.50		1.1003E+00
			-130.00		1.1004E+00
			-129.50		1.1004E+00
			-129.00		1.1004E+00
			-128.50		1.1004E+00
			-128.00		1.1004E+00
			-127.50		1.1004E+00
			-127.00		1.1004E+00
			-126.50		1.1003E+00
			-126.00		1.1003E+00
			-125.50		1.1003E+00
			-125.00		1.1002E+00
			-124.50		1.1001E+00
			-124.00		1.1000E+00
			-123.50		1.1000E+00
			-123.00		1.0999E+00
			-122.50		1.0998E+00
			-122.00		1.0997E+00
			-121.50		1.0997E+00
			-121.00		1.0997E+00
			-120.50		1.0996E+00
			-120.00		1.0996E+00
			-119.50		1.0998E+00
			-119.00		1.0999E+00
			-118.50		1.1000E+00
			-118.00		1.1002E+00
			-117.50		1.1003E+00
			-117.00		1.1003E+00
			-116.50		1.1005E+00
			-116.00		1.1006E+00
			-115.50		1.1007E+00
			-115.00		1.1009E+00
			-114.50		1.1012E+00
			-114.00		1.1014E+00
			-113.50		1.1016E+00
			-113.00		1.1018E+00
			-112.50		1.1016E+00
			-112.00		1.1015E+00
			-111.50		1.1012E+00
			-111.00		1.1010E+00
			-110.50		1.1007E+00
			-110.00		1.1005E+00
			-109.50		1.1005E+00
			-109.00		1.1004E+00
			-108.50		1.1005E+00
			-108.00		1.1006E+00
			-107.50		1.1007E+00
			-107.00		1.1007E+00
			-106.50		1.1007E+00
			-106.00		1.1007E+00
			-105.50		1.1007E+00
			-105.00		1.1006E+00
			-104.50		1.1005E+00
			-104.00		1.1004E+00
			-103.50		1.1003E+00
			-103.00		1.1003E+00
			-102.50		1.1003E+00
			-102.00		1.1004E+00
			-101.50		1.1005E+00
			-101.00		1.1005E+00
			-100.50		1.1005E+00
			-100.00		1.1005E+00
			-99.50		1.1005E+00
			-99.00		1.1006E+00
			-98.50		1.1005E+00
			-98.00		1.1004E+00
			-97.50		1.1003E+00
			-97.00		1.1003E+00
			-96.50		1.1001E+00
			-96.00		1.1000E+00
			-95.50		1.0999E+00
			-95.00		1.0998E+00
			-94.50		1.0997E+00
			-94.00		1.0996E+00
			-93.50		1.0996E+00
			-93.00		1.0995E+00
			-92.50		1.0995E+00
			-92.00		1.0995E+00
			-91.50		1.0995E+00
			-91.00		1.0995E+00
			-90.50		1.0994E+00
			-90.00		1.0993E+00
			-89.50		1.0992E+00
			-89.00		1.0991E+00
			-88.50		1.0991E+00
			-88.00		1.0990E+00
			-87.50		1.0990E+00
			-87.00		1.0990E+00
			-86.50		1.0990E+00
			-86.00		1.0990E+00
			-85.50		1.0989E+00
			-85.00		1.0989E+00
			-84.50		1.0989E+00
			-84.00		1.0988E+00
			-83.50		1.0987E+00
			-83.00		1.0987E+00
			-82.50		1.0985E+00
			-82.00		1.0983E+00
			-81.50		1.0980E+00
			-81.00		1.0977E+00
			-80.50		1.0974E+00
			-80.00		1.0970E+00
			-79.50		1.0968E+00
			-79.00		1.0967E+00
			-78.50		1.0967E+00
			-78.00		1.0966E+00
			-77.50		1.0965E+00
			-77.00		1.0965E+00
			-76.50		1.0965E+00
			-76.00		1.0965E+00
			-75.50		1.0966E+00
			-75.00		1.0967E+00
			-74.50		1.0968E+00
			-74.00		1.0968E+00
			-73.50		1.0968E+00
			-73.00		1.0969E+00
			-72.50		1.0968E+00
			-72.00		1.0967E+00
			-71.50		1.0966E+00
			-71.00		1.0965E+00
			-70.50		1.0963E+00
			-70.00		1.0962E+00
			-69.50		1.0963E+00
			-69.00		1.0963E+00
			-68.50		1.0963E+00
			-68.00		1.0963E+00
			-67.50		1.0963E+00
			-67.00		1.0963E+00
			-66.50		1.0963E+00
			-66.00		1.0963E+00
			-65.50		1.0963E+00
			-65.00		1.0962E+00
			-64.50		1.0961E+00
			-64.00		1.0960E+00
			-63.50		1.0958E+00
			-63.00		1.0957E+00
			-62.50		1.0954E+00
			-62.00		1.0952E+00
			-61.50		1.0949E+00
			-61.00		1.0947E+00
			-60.50		1.0946E+00
			-60.00		1.0944E+00
			-59.50		1.0942E+00
			-59.00		1.0940E+00
			-58.50		1.0939E+00
			-58.00		1.0938E+00
			-57.50		1.0938E+00
			-57.00		1.0937E+00
			-56.50		1.0937E+00
			-56.00		1.0937E+00
			-55.50		1.0937E+00
			-55.00		1.0936E+00
			-54.50		1.0934E+00
			-54.00		1.0932E+00
			-53.50		1.0929E+00
			-53.00		1.0927E+00
			-52.50		1.0924E+00
			-52.00		1.0921E+00
			-51.50		1.0919E+00
			-51.00		1.0918E+00
			-50.50		1.0917E+00
			-50.00		1.0915E+00
			-49.50		1.0914E+00
			-49.00		1.0913E+00
			-48.50		1.0911E+00
			-48.00		1.0908E+00
			-47.50		1.0905E+00
			-47.00		1.0903E+00
			-46.50		1.0900E+00
			-46.00		1.0897E+00
			-45.50		1.0893E+00
			-45.00		1.0890E+00
			-44.50		1.0886E+00
			-44.00		1.0883E+00
			-43.50		1.0878E+00
			-43.00		1.0874E+00
			-42.50		1.0869E+00
			-42.00		1.0864E+00
			-41.50		1.0860E+00
			-41.00		1.0856E+00
			-40.50		1.0853E+00
			-40.00		1.0850E+00
			-39.50		1.0848E+00
			-39.00		1.0846E+00
			-38.50		1.0844E+00
			-38.00		1.0842E+00
			-37.50		1.0840E+00
			-37.00		1.0837E+00
			-36.50		1.0834E+00
			-36.00		1.0832E+00
			-35.50		1.0828E+00
			-35.00		1.0825E+00
			-34.50		1.0821E+00
			-34.00		1.0817E+00
			-33.50		1.0813E+00
			-33.00		1.0809E+00
			-32.50		1.0807E+00
			-32.00		1.0805E+00
			-31.50		1.0803E+00
			-31.00		1.0800E+00
			-30.50		1.0798E+00
			-30.00		1.0797E+00
			-29.50		1.0796E+00
			-29.00		1.0794E+00
			-28.50		1.0793E+00
			-28.00		1.0792E+00
			-27.50		1.0791E+00
			-27.00		1.0790E+00
			-26.50		1.0789E+00
			-26.00		1.0789E+00
			-25.50		1.0788E+00
			-25.00		1.0787E+00
			-24.50		1.0785E+00
			-24.00		1.0784E+00
			-23.50		1.0782E+00
			-23.00		1.0779E+00
			-22.50		1.0777E+00
			-22.00		1.0776E+00
			-21.50		1.0775E+00
			-21.00		1.0774E+00
			-20.50		1.0773E+00
			-20.00		1.0773E+00
			-19.50		1.0771E+00
			-19.00		1.0770E+00
			-18.50		1.0769E+00
			-18.00		1.0768E+00
			-17.50		1.0766E+00
			-17.00		1.0764E+00
			-16.50		1.0762E+00
			-16.00		1.0760E+00
			-15.50		1.0757E+00
			-15.00		1.0755E+00
			-14.50		1.0751E+00
			-14.00		1.0747E+00
			-13.50		1.0742E+00
			-13.00		1.0738E+00
			-12.50		1.0734E+00
			-12.00		1.0730E+00
			-11.50		1.0726E+00
			-11.00		1.0723E+00
			-10.50		1.0720E+00
			-10.00		1.0717E+00
			-9.50		1.0714E+00
			-9.00		1.0712E+00
			-8.50		1.0710E+00
			-8.00		1.0708E+00
			-7.50		1.0705E+00
			-7.00		1.0703E+00
			-6.50		1.0702E+00
			-6.00		1.0700E+00
			-5.50		1.0698E+00
			-5.00		1.0696E+00
			-4.50		1.0695E+00
			-4.00		1.0693E+00
			-3.50		1.0691E+00
			-3.00		1.0690E+00
			-2.50		1.0689E+00
			-2.00		1.0689E+00
			-1.50		1.0689E+00
			-1.00		1.0689E+00
			-0.50		1.0689E+00
			0.00		1.0688E+00
			0.50		1.0689E+00
			1.00		1.0689E+00
			1.50		1.0689E+00
			2.00		1.0689E+00
			2.50		1.0689E+00
			3.00		1.0690E+00
			3.50		1.0691E+00
			4.00		1.0693E+00
			4.50		1.0695E+00
			5.00		1.0696E+00
			5.50		1.0698E+00
			6.00		1.0700E+00
			6.50		1.0702E+00
			7.00		1.0703E+00
			7.50		1.0705E+00
			8.00		1.0708E+00
			8.50		1.0710E+00
			9.00		1.0712E+00
			9.50		1.0714E+00
			10.00		1.0717E+00
			10.50		1.0720E+00
			11.00		1.0723E+00
			11.50		1.0726E+00
			12.00		1.0730E+00
			12.50		1.0734E+00
			13.00		1.0738E+00
			13.50		1.0742E+00
			14.00		1.0747E+00
			14.50		1.0751E+00
			15.00		1.0755E+00
			15.50		1.0757E+00
			16.00		1.0760E+00
			16.50		1.0762E+00
			17.00		1.0764E+00
			17.50		1.0766E+00
			18.00		1.0768E+00
			18.50		1.0769E+00
			19.00		1.0770E+00
			19.50		1.0771E+00
			20.00		1.0773E+00
			20.50		1.0773E+00
			21.00		1.0774E+00
			21.50		1.0775E+00
			22.00		1.0776E+00
			22.50		1.0777E+00
			23.00		1.0779E+00
			23.50		1.0782E+00
			24.00		1.0784E+00
			24.50		1.0785E+00
			25.00		1.0787E+00
			25.50		1.0788E+00
			26.00		1.0789E+00
			26.50		1.0789E+00
			27.00		1.0790E+00
			27.50		1.0791E+00
			28.00		1.0792E+00
			28.50		1.0793E+00
			29.00		1.0794E+00
			29.50		1.0796E+00
			30.00		1.0797E+00
			30.50		1.0798E+00
			31.00		1.0800E+00
			31.50		1.0803E+00
			32.00		1.0805E+00
			32.50		1.0807E+00
			33.00		1.0809E+00
			33.50		1.0813E+00
			34.00		1.0817E+00
			34.50		1.0821E+00
			35.00		1.0825E+00
			35.50		1.0828E+00
			36.00		1.0832E+00
			36.50		1.0834E+00
			37.00		1.0837E+00
			37.50		1.0840E+00
			38.00		1.0842E+00
			38.50		1.0844E+00
			39.00		1.0846E+00
			39.50		1.0848E+00
			40.00		1.0850E+00
			40.50		1.0853E+00
			41.00		1.0856E+00
			41.50		1.0860E+00
			42.00		1.0864E+00
			42.50		1.0869E+00
			43.00		1.0874E+00
			43.50		1.0878E+00
			44.00		1.0883E+00
			44.50		1.0886E+00
			45.00		1.0890E+00
			45.50		1.0893E+00
			46.00		1.0897E+00
			46.50		1.0900E+00
			47.00		1.0903E+00
			47.50		1.0905E+00
			48.00		1.0908E+00
			48.50		1.0911E+00
			49.00		1.0913E+00
			49.50		1.0914E+00
			50.00		1.0915E+00
			50.50		1.0917E+00
			51.00		1.0918E+00
			51.50		1.0919E+00
			52.00		1.0921E+00
			52.50		1.0924E+00
			53.00		1.0927E+00
			53.50		1.0929E+00
			54.00		1.0932E+00
			54.50		1.0934E+00
			55.00		1.0936E+00
			55.50		1.0937E+00
			56.00		1.0937E+00
			56.50		1.0937E+00
			57.00		1.0937E+00
			57.50		1.0938E+00
			58.00		1.0938E+00
			58.50		1.0939E+00
			59.00		1.0940E+00
			59.50		1.0942E+00
			60.00		1.0944E+00
			60.50		1.0946E+00
			61.00		1.0947E+00
			61.50		1.0949E+00
			62.00		1.0952E+00
			62.50		1.0954E+00
			63.00		1.0957E+00
			63.50		1.0958E+00
			64.00		1.0960E+00
			64.50		1.0961E+00
			65.00		1.0962E+00
			65.50		1.0963E+00
			66.00		1.0963E+00
			66.50		1.0963E+00
			67.00		1.0963E+00
			67.50		1.0963E+00
			68.00		1.0963E+00
			68.50		1.0963E+00
			69.00		1.0963E+00
			69.50		1.0963E+00
			70.00		1.0962E+00
			70.50		1.0963E+00
			71.00		1.0965E+00
			71.50		1.0966E+00
			72.00		1.0967E+00
			72.50		1.0968E+00
			73.00		1.0969E+00
			73.50		1.0968E+00
			74.00		1.0968E+00
			74.50		1.0968E+00
			75.00		1.0967E+00
			75.50		1.0966E+00
			76.00		1.0965E+00
			76.50		1.0965E+00
			77.00		1.0965E+00
			77.50		1.0965E+00
			78.00		1.0966E+00
			78.50		1.0967E+00
			79.00		1.0967E+00
			79.50		1.0968E+00
			80.00		1.0970E+00
			80.50		1.0974E+00
			81.00		1.0977E+00
			81.50		1.0980E+00
			82.00		1.0983E+00
			82.50		1.0985E+00
			83.00		1.0987E+00
			83.50		1.0987E+00
			84.00		1.0988E+00
			84.50		1.0989E+00
			85.00		1.0989E+00
			85.50		1.0989E+00
			86.00		1.0990E+00
			86.50		1.0990E+00
			87.00		1.0990E+00
			87.50		1.0990E+00
			88.00		1.0990E+00
			88.50		1.0991E+00
			89.00		1.0991E+00
			89.50		1.0992E+00
			90.00		1.0993E+00
			90.50		1.0994E+00
			91.00		1.0995E+00
			91.50		1.0995E+00
			92.00		1.0995E+00
			92.50		1.0995E+00
			93.00		1.0995E+00
			93.50		1.0996E+00
			94.00		1.0996E+00
			94.50		1.0997E+00
			95.00		1.0998E+00
			95.50		1.0999E+00
			96.00		1.1000E+00
			96.50		1.1001E+00
			97.00		1.1003E+00
			97.50		1.1003E+00
			98.00		1.1004E+00
			98.50		1.1005E+00
			99.00		1.1006E+00
			99.50		1.1005E+00
			100.00		1.1005E+00
			100.50		1.1005E+00
			101.00		1.1005E+00
			101.50		1.1005E+00
			102.00		1.1004E+00
			102.50		1.1003E+00
			103.00		1.1003E+00
			103.50		1.1003E+00
			104.00		1.1004E+00
			104.50		1.1005E+00
			105.00		1.1006E+00
			105.50		1.1007E+00
			106.00		1.1007E+00
			106.50		1.1007E+00
			107.00		1.1007E+00
			107.50		1.1007E+00
			108.00		1.1006E+00
			108.50		1.1005E+00
			109.00		1.1004E+00
			109.50		1.1005E+00
			110.00		1.1005E+00
			110.50		1.1007E+00
			111.00		1.1010E+00
			111.50		1.1012E+00
			112.00		1.1015E+00
			112.50		1.1016E+00
			113.00		1.1018E+00
			113.50		1.1016E+00
			114.00		1.1014E+00
			114.50		1.1012E+00
			115.00		1.1009E+00
			115.50		1.1007E+00
			116.00		1.1006E+00
			116.50		1.1005E+00
			117.00		1.1003E+00
			117.50		1.1003E+00
			118.00		1.1002E+00
			118.50		1.1000E+00
			119.00		1.0999E+00
			119.50		1.0998E+00
			120.00		1.0996E+00
			120.50		1.0996E+00
			121.00		1.0997E+00
			121.50		1.0997E+00
			122.00		1.0997E+00
			122.50		1.0998E+00
			123.00		1.0999E+00
			123.50		1.1000E+00
			124.00		1.1000E+00
			124.50		1.1001E+00
			125.00		1.1002E+00
			125.50		1.1003E+00
			126.00		1.1003E+00
			126.50		1.1003E+00
			127.00		1.1004E+00
			127.50		1.1004E+00
			128.00		1.1004E+00
			128.50		1.1004E+00
			129.00		1.1004E+00
			129.50		1.1004E+00
			130.00		1.1004E+00
			130.50		1.1003E+00
			131.00		1.1003E+00
			131.50		1.1002E+00
			132.00		1.1001E+00
			132.50		1.1000E+00
			133.00		1.0998E+00
			133.50		1.0996E+00
			134.00		1.0995E+00
			134.50		1.0992E+00
			135.00		1.0990E+00
			135.50		1.0987E+00
			136.00		1.0985E+00
			136.50		1.0983E+00
			137.00		1.0981E+00
			137.50		1.0980E+00
			138.00		1.0979E+00
			138.50		1.0979E+00
			139.00		1.0978E+00
			139.50		1.0977E+00
			140.00		1.0976E+00
			140.50		1.0975E+00
			141.00		1.0973E+00
			141.50		1.0970E+00
			142.00		1.0967E+00
			142.50		1.0965E+00
			143.00		1.0963E+00
			143.50		1.0961E+00
			144.00		1.0960E+00
			144.50		1.0958E+00
			145.00		1.0957E+00
			145.50		1.0955E+00
			146.00		1.0953E+00
			146.50		1.0951E+00
			147.00		1.0950E+00
			147.50		1.0949E+00
			148.00		1.0948E+00
			148.50		1.0946E+00
			149.00		1.0944E+00
			149.50		1.0942E+00
			150.00		1.0940E+00
			150.50		1.0936E+00
			151.00		1.0933E+00
			151.50		1.0928E+00
			152.00		1.0924E+00
			152.50		1.0920E+00
			153.00		1.0916E+00
			153.50		1.0912E+00
			154.00		1.0907E+00
			154.50		1.0903E+00
			155.00		1.0898E+00
			155.50		1.0893E+00
			156.00		1.0888E+00
			156.50		1.0884E+00
			157.00		1.0879E+00
			157.50		1.0876E+00
			158.00		1.0872E+00
			158.50		1.0870E+00
			159.00		1.0867E+00
			159.50		1.0863E+00
			160.00		1.0859E+00
			160.50		1.0854E+00
			161.00		1.0850E+00
			161.50		1.0845E+00
			162.00		1.0840E+00
			162.50		1.0835E+00
			163.00		1.0830E+00
			163.50		1.0826E+00
			164.00		1.0821E+00
			164.50		1.0817E+00
			165.00		1.0812E+00
			165.50		1.0805E+00
			166.00		1.0799E+00
			166.50		1.0791E+00
			167.00		1.0784E+00
			167.50		1.0775E+00
			168.00		1.0767E+00
			168.50		1.0759E+00
			169.00		1.0751E+00
			169.50		1.0742E+00
			170.00		1.0734E+00
			170.50		1.0726E+00
			171.00		1.0717E+00
			171.50		1.0707E+00
			172.00		1.0698E+00
			172.50		1.0688E+00
			173.00		1.0677E+00
			173.50		1.0666E+00
			174.00		1.0655E+00
			174.50		1.0644E+00
			175.00		1.0632E+00
			175.50		1.0620E+00
			176.00		1.0608E+00
			176.50		1.0594E+00
			177.00		1.0579E+00
			177.50		1.0561E+00
			178.00		1.0543E+00
			178.50		1.0522E+00
			179.00		1.0500E+00
			179.50		1.0476E+00
			180.00		1.0452E+00
			180.50		1.0424E+00
			181.00		1.0397E+00
			181.50		1.0358E+00
			182.00		1.0318E+00
			182.50		1.0271E+00
			183.00		1.0223E+00
			183.50		1.0158E+00
			184.00		1.0093E+00
			184.50		999.61E-03
			185.00		989.93E-03
			185.50		973.94E-03
			186.00		957.95E-03
			186.50		930.43E-03
			187.00		902.91E-03
			187.50		864.44E-03
			188.00		825.98E-03
			188.50		779.06E-03
			189.00		732.14E-03
			189.50		678.40E-03
			190.00		624.66E-03
			190.50		568.54E-03
			191.00		512.42E-03
			191.50		461.56E-03
			192.00		410.70E-03
			192.50		366.47E-03
			193.00		322.25E-03
			193.50		287.24E-03
			194.00		252.22E-03
			194.50		230.36E-03
			195.00		208.50E-03
			195.50		195.94E-03
			196.00		183.38E-03
			196.50		174.98E-03
			197.00		166.59E-03
			197.50		160.41E-03
			198.00		154.24E-03
			198.50		149.33E-03
			199.00		144.42E-03
			199.50		140.63E-03
			200.00		136.84E-03
			200.50		133.52E-03
			201.00		130.20E-03
			201.50		127.27E-03
			202.00		124.34E-03
			202.50		121.81E-03
			203.00		119.28E-03
			203.50		116.80E-03
			204.00		114.32E-03
			204.50		111.91E-03
			205.00		109.49E-03
			205.50		107.57E-03
			206.00		105.65E-03
			206.50		103.90E-03
			207.00		102.16E-03
			207.50		100.53E-03
			208.00		98.891E-03
			208.50		97.352E-03
			209.00		95.813E-03
			209.50		94.202E-03
			210.00		92.591E-03
			210.50		91.053E-03
			211.00		89.515E-03
			211.50		88.039E-03
			212.00		86.562E-03
			212.50		85.132E-03
			213.00		83.702E-03
			213.50		82.629E-03
			214.00		81.555E-03
			214.50		80.388E-03
			215.00		79.221E-03
			215.50		78.164E-03
			216.00		77.106E-03
			216.50		76.090E-03
			217.00		75.075E-03
			217.50		74.098E-03
			218.00		73.122E-03
			218.50		72.190E-03
			219.00		71.257E-03
			219.50		70.339E-03
			220.00		69.420E-03
			220.50		68.615E-03
			221.00		67.810E-03
			221.50		67.087E-03
			222.00		66.363E-03
			222.50		65.623E-03
			223.00		64.884E-03
			223.50		64.101E-03
			224.00		63.318E-03
		END_DATA
	END_SCAN  2
	BEGIN_SCAN  3
		TASK_NAME=tba PDD Profiles
		PROGRAM=WaterTankScans
		COMMENT=5x X
		MEAS_DATE=08-Feb-2021 10:38:06
		LINAC=TRUEBEAMSN4791
		MODALITY=X
		ISOCENTER=1000.00
		INPLANE_AXIS=Y
		CROSSPLANE_AXIS=X
		DEPTH_AXIS=Depth
		INPLANE_AXIS_DIR=TARGET_GUN
		CROSSPLANE_AXIS_DIR=LEFT_RIGHT
		DEPTH_AXIS_DIR=UP_DOWN
		ENERGY=6.00
		NOMINAL_DMAX=15.00
		SSD=900.00
		SCD=450.00
		WEDGE_ANGLE=0.00
		FIELD_INPLANE=400.00
		FIELD_CROSSPLANE=400.00
		FIELD_TYPE=RECTANGULAR
		GANTRY=0.00
		GANTRY_UPRIGHT_POSITION=0
		GANTRY_ROTATION=CW
		COLL_ANGLE=0.00
		COLL_OFFSET_INPLANE=0.00
		COLL_OFFSET_CROSSPLANE=0.00
		SCAN_DEVICE=BeamScan
		SCAN_DEVICE_SETUP=BARA_LEFT_RIGHT
		ELECTROMETER=BeamScan
		RANGE_FIELD=LOW
		RANGE_REFERENCE=MEDIUM
		DETECTOR=THIMBLE_CHAMBER
		DETECTOR_SUBCODE=SEMIFLEX
		DETECTOR_RADIUS=2.40
		DETECTOR_NAME=PTW 31021 Semiflex 3D (1)
		DETECTOR_SN=142316
		DETECTOR_CALIBRATION=588000000.00
		DETECTOR_IS_CALIBRATED=1
		DETECTOR_REFERENCE=THIMBLE_CHAMBER
		DETECTOR_REFERENCE_SUBCODE=SEMIFLEX
		DETECTOR_REFERENCE_RADIUS=2.75
		DETECTOR_REFERENCE_NAME=PTW 31010 Semiflex (1)
		DETECTOR_REFERENCE_SN=ÃƒÆ’Ã‚Â¢ÃƒÂ¢Ã¢â‚¬Å¡Ã‚Â¬ÃƒÂ¢Ã¢â€šÂ¬
		DETECTOR_REFERENCE_IS_CALIBRATED=0
		DETECTOR_REFERENCE_CALIBRATION=303000000.00
		DETECTOR_HV=400.0
		DETECTOR_REFERENCE_HV=400.0
		DETECTOR_ORIENTATION=HORIZONTAL
		FILTER=FF
		SCAN_SPEED_PROFILE=12.50
		SCAN_PROF_SPEED_DEP=DEPTH
		SCAN_SPEED_PDD=0.00
		SCAN_PDD_SPEED_DEP=ENERGY
		DETECTOR_TYPE=T31021
		REF_FIELD_DEPTH=300.00
		REF_FIELD_DEFINED=ISOCENTER
		REF_FIELD_INPLANE=100.00
		REF_FIELD_CROSSPLANE=100.00
		REF_SCAN_POSITIONS=-85.00;-84.00;-83.00;-82.00;-81.00;-80.00;-79.00;-78.00;-77.00;-76.00;-75.00;-74.00;-73.00;-72.00;-71.00;-70.00;-69.00;-68.00;-67.00;-66.00;-65.00;-64.00;-63.00;-62.00;-61.00;-60.00;-59.00;-58.00;-57.00;-56.00;-55.00;-54.00;-53.00;-52.00;-51.00;-50.00;-49.00;-48.00;-47.00;-46.00;-45.00;-44.00;-43.00;-42.00;-41.00;-40.00;-39.00;-38.00;-37.00;-36.00;-35.00;-34.00;-33.00;-32.00;-31.00;-30.00;-29.00;-28.00;-27.00;-26.00;-25.00;-24.00;-23.00;-22.00;-21.00;-20.00;-19.00;-18.00;-17.00;-16.00;-15.00;-14.00;-13.00;-12.00;-11.00;-10.00;-9.00;-8.00;-7.00;-6.00;-5.00;-4.00;-3.00;-2.00;-1.00;0.00;1.00;2.00;3.00;4.00;5.00;6.00;7.00;8.00;9.00;10.00;11.00;12.00;13.00;14.00;15.00;16.00;17.00;18.00;19.00;20.00;21.00;22.00;23.00;24.00;25.00;26.00;27.00;28.00;29.00;30.00;31.00;32.00;33.00;34.00;35.00;36.00;37.00;38.00;39.00;40.00;41.00;42.00;43.00;44.00;45.00;46.00;47.00;48.00;49.00;50.00;51.00;52.00;53.00;54.00;55.00;56.00;57.00;58.00;59.00;60.00;61.00;62.00;63.00;64.00;65.00;66.00;67.00;68.00;69.00;70.00;71.00;72.00;73.00;74.00;75.00;76.00;77.00;78.00;79.00;80.00;81.00;82.00;83.00;84.00;85.00;
		REF_OVERSCAN_FACTOR=1.00
		SCAN_CURVETYPE=CROSSPLANE_PROFILE
		SCAN_DEPTH=100.00
		SCAN_OFFAXIS_INPLANE=0.00
		SCAN_OFFAXIS_CROSSPLANE=0.00
		SCAN_ANGLE=0.00
		SCAN_DIAGONAL=NOT_DIAGONAL
		SCAN_DIRECTION=POSITIVE
		MEAS_MEDIUM=WATER
		MEAS_PRESET=MEAS_CONTINUOUS_REFERENCE_SCAN
		MEAS_TIME=0.080
		MEAS_UNIT=A.U.
		INCLINATION_ANGLE=0.00
		PRESSURE=1013.25
		TEMPERATURE=20.00
		NORM_TEMPERATURE=20.00
		CORRECTION_FACTOR=1.0000
		EXPECTED_MAX_DOSE_RATE=3.00
		EPOM_DEPTH_SHIFT=0.2
		EPOM_MODE=SHIFT_PROTOCOL
		CORRECTIONS=SMOOTHED_CORR;CAX_CORR;SYMMETRY_CORR;INTERPOLATED_CORR;MODIFIED_CORR;
		BEGIN_DATA
			-234.00		75.096E-03
			-233.50		75.931E-03
			-233.00		76.765E-03
			-232.50		77.599E-03
			-232.00		78.434E-03
			-231.50		79.268E-03
			-231.00		80.102E-03
			-230.50		80.936E-03
			-230.00		81.771E-03
			-229.50		83.023E-03
			-229.00		84.274E-03
			-228.50		85.109E-03
			-228.00		85.943E-03
			-227.50		86.778E-03
			-227.00		87.612E-03
			-226.50		88.864E-03
			-226.00		90.115E-03
			-225.50		90.950E-03
			-225.00		91.784E-03
			-224.50		92.618E-03
			-224.00		93.453E-03
			-223.50		94.704E-03
			-223.00		95.956E-03
			-222.50		97.208E-03
			-222.00		98.459E-03
			-221.50		99.709E-03
			-221.00		100.96E-03
			-220.50		102.21E-03
			-220.00		103.47E-03
			-219.50		104.72E-03
			-219.00		105.97E-03
			-218.50		107.64E-03
			-218.00		109.31E-03
			-217.50		110.56E-03
			-217.00		111.81E-03
			-216.50		113.06E-03
			-216.00		114.31E-03
			-215.50		116.39E-03
			-215.00		118.48E-03
			-214.50		120.15E-03
			-214.00		121.82E-03
			-213.50		123.49E-03
			-213.00		125.16E-03
			-212.50		127.24E-03
			-212.00		129.33E-03
			-211.50		131.83E-03
			-211.00		134.34E-03
			-210.50		136.84E-03
			-210.00		139.34E-03
			-209.50		141.85E-03
			-209.00		144.35E-03
			-208.50		148.10E-03
			-208.00		151.86E-03
			-207.50		156.45E-03
			-207.00		161.04E-03
			-206.50		166.88E-03
			-206.00		172.72E-03
			-205.50		181.48E-03
			-205.00		190.24E-03
			-204.50		204.84E-03
			-204.00		219.45E-03
			-203.50		241.97E-03
			-203.00		264.50E-03
			-202.50		293.70E-03
			-202.00		322.91E-03
			-201.50		356.29E-03
			-201.00		389.66E-03
			-200.50		426.80E-03
			-200.00		463.93E-03
			-199.50		500.64E-03
			-199.00		537.35E-03
			-198.50		569.06E-03
			-198.00		600.77E-03
			-197.50		626.63E-03
			-197.00		652.50E-03
			-196.50		671.69E-03
			-196.00		690.88E-03
			-195.50		702.14E-03
			-195.00		713.41E-03
			-194.50		720.50E-03
			-194.00		727.60E-03
			-193.50		732.60E-03
			-193.00		737.61E-03
			-192.50		741.78E-03
			-192.00		745.95E-03
			-191.50		749.29E-03
			-191.00		752.63E-03
			-190.50		755.13E-03
			-190.00		757.64E-03
			-189.50		759.72E-03
			-189.00		761.81E-03
			-188.50		763.48E-03
			-188.00		765.14E-03
			-187.50		766.81E-03
			-187.00		768.48E-03
			-186.50		769.73E-03
			-186.00		770.99E-03
			-185.50		772.66E-03
			-185.00		774.32E-03
			-184.50		775.58E-03
			-184.00		776.83E-03
			-183.50		778.08E-03
			-183.00		779.33E-03
			-182.50		780.17E-03
			-182.00		781.00E-03
			-181.50		781.84E-03
			-181.00		782.67E-03
			-180.50		783.51E-03
			-180.00		784.34E-03
			-179.50		785.59E-03
			-179.00		786.84E-03
			-178.50		787.68E-03
			-178.00		788.51E-03
			-177.50		789.35E-03
			-177.00		790.18E-03
			-176.50		791.02E-03
			-176.00		791.85E-03
			-175.50		792.68E-03
			-175.00		793.51E-03
			-174.50		794.35E-03
			-174.00		795.18E-03
			-173.50		796.02E-03
			-173.00		796.85E-03
			-172.50		797.69E-03
			-172.00		798.52E-03
			-171.50		799.36E-03
			-171.00		800.19E-03
			-170.50		801.02E-03
			-170.00		801.86E-03
			-169.50		802.69E-03
			-169.00		803.53E-03
			-168.50		803.94E-03
			-168.00		804.36E-03
			-167.50		805.19E-03
			-167.00		806.03E-03
			-166.50		806.86E-03
			-166.00		807.70E-03
			-165.50		808.12E-03
			-165.00		808.53E-03
			-164.50		809.36E-03
			-164.00		810.20E-03
			-163.50		810.62E-03
			-163.00		811.04E-03
			-162.50		811.46E-03
			-162.00		811.87E-03
			-161.50		812.29E-03
			-161.00		812.71E-03
			-160.50		813.13E-03
			-160.00		813.54E-03
			-159.50		813.95E-03
			-159.00		814.37E-03
			-158.50		815.20E-03
			-158.00		816.04E-03
			-157.50		816.46E-03
			-157.00		816.88E-03
			-156.50		817.29E-03
			-156.00		817.71E-03
			-155.50		818.13E-03
			-155.00		818.55E-03
			-154.50		818.96E-03
			-154.00		819.38E-03
			-153.50		819.80E-03
			-153.00		820.22E-03
			-152.50		820.63E-03
			-152.00		821.05E-03
			-151.50		821.47E-03
			-151.00		821.88E-03
			-150.50		822.30E-03
			-150.00		822.72E-03
			-149.50		823.14E-03
			-149.00		823.55E-03
			-148.50		824.38E-03
			-148.00		825.22E-03
			-147.50		825.22E-03
			-147.00		825.22E-03
			-146.50		825.64E-03
			-146.00		826.06E-03
			-145.50		826.06E-03
			-145.00		826.06E-03
			-144.50		826.48E-03
			-144.00		826.89E-03
			-143.50		827.30E-03
			-143.00		827.72E-03
			-142.50		828.14E-03
			-142.00		828.56E-03
			-141.50		828.97E-03
			-141.00		829.39E-03
			-140.50		829.39E-03
			-140.00		829.39E-03
			-139.50		829.81E-03
			-139.00		830.23E-03
			-138.50		830.64E-03
			-138.00		831.06E-03
			-137.50		831.06E-03
			-137.00		831.06E-03
			-136.50		831.06E-03
			-136.00		831.06E-03
			-135.50		831.48E-03
			-135.00		831.90E-03
			-134.50		832.31E-03
			-134.00		832.73E-03
			-133.50		833.15E-03
			-133.00		833.57E-03
			-132.50		833.57E-03
			-132.00		833.57E-03
			-131.50		833.57E-03
			-131.00		833.57E-03
			-130.50		833.98E-03
			-130.00		834.40E-03
			-129.50		834.40E-03
			-129.00		834.40E-03
			-128.50		834.82E-03
			-128.00		835.23E-03
			-127.50		835.65E-03
			-127.00		836.07E-03
			-126.50		836.07E-03
			-126.00		836.07E-03
			-125.50		836.49E-03
			-125.00		836.90E-03
			-124.50		836.90E-03
			-124.00		836.90E-03
			-123.50		836.90E-03
			-123.00		836.90E-03
			-122.50		837.32E-03
			-122.00		837.74E-03
			-121.50		837.74E-03
			-121.00		837.74E-03
			-120.50		837.74E-03
			-120.00		837.74E-03
			-119.50		838.16E-03
			-119.00		838.57E-03
			-118.50		838.99E-03
			-118.00		839.41E-03
			-117.50		839.41E-03
			-117.00		839.41E-03
			-116.50		839.41E-03
			-116.00		839.41E-03
			-115.50		839.83E-03
			-115.00		840.24E-03
			-114.50		840.24E-03
			-114.00		840.24E-03
			-113.50		840.24E-03
			-113.00		840.24E-03
			-112.50		840.66E-03
			-112.00		841.08E-03
			-111.50		841.08E-03
			-111.00		841.08E-03
			-110.50		841.08E-03
			-110.00		841.08E-03
			-109.50		841.50E-03
			-109.00		841.91E-03
			-108.50		841.91E-03
			-108.00		841.91E-03
			-107.50		841.91E-03
			-107.00		841.91E-03
			-106.50		842.32E-03
			-106.00		842.74E-03
			-105.50		842.74E-03
			-105.00		842.74E-03
			-104.50		842.74E-03
			-104.00		842.74E-03
			-103.50		842.74E-03
			-103.00		842.74E-03
			-102.50		843.16E-03
			-102.00		843.58E-03
			-101.50		843.58E-03
			-101.00		843.58E-03
			-100.50		843.58E-03
			-100.00		843.58E-03
			-99.50		843.58E-03
			-99.00		843.58E-03
			-98.50		843.58E-03
			-98.00		843.58E-03
			-97.50		843.99E-03
			-97.00		844.41E-03
			-96.50		844.41E-03
			-96.00		844.41E-03
			-95.50		844.41E-03
			-95.00		844.41E-03
			-94.50		844.41E-03
			-94.00		844.41E-03
			-93.50		844.41E-03
			-93.00		844.41E-03
			-92.50		844.41E-03
			-92.00		844.41E-03
			-91.50		844.41E-03
			-91.00		844.41E-03
			-90.50		844.41E-03
			-90.00		844.41E-03
			-89.50		844.83E-03
			-89.00		845.25E-03
			-88.50		845.25E-03
			-88.00		845.25E-03
			-87.50		845.25E-03
			-87.00		845.25E-03
			-86.50		845.25E-03
			-86.00		845.25E-03
			-85.50		845.25E-03
			-85.00		845.25E-03
			-84.50		845.25E-03
			-84.00		845.25E-03
			-83.50		845.25E-03
			-83.00		845.25E-03
			-82.50		845.66E-03
			-82.00		846.08E-03
			-81.50		846.08E-03
			-81.00		846.08E-03
			-80.50		846.50E-03
			-80.00		846.92E-03
			-79.50		846.92E-03
			-79.00		846.92E-03
			-78.50		846.92E-03
			-78.00		846.92E-03
			-77.50		846.92E-03
			-77.00		846.92E-03
			-76.50		846.92E-03
			-76.00		846.92E-03
			-75.50		846.92E-03
			-75.00		846.92E-03
			-74.50		846.92E-03
			-74.00		846.92E-03
			-73.50		846.92E-03
			-73.00		846.92E-03
			-72.50		846.92E-03
			-72.00		846.92E-03
			-71.50		846.92E-03
			-71.00		846.92E-03
			-70.50		846.92E-03
			-70.00		846.92E-03
			-69.50		846.92E-03
			-69.00		846.92E-03
			-68.50		846.50E-03
			-68.00		846.08E-03
			-67.50		846.08E-03
			-67.00		846.08E-03
			-66.50		846.08E-03
			-66.00		846.08E-03
			-65.50		846.08E-03
			-65.00		846.08E-03
			-64.50		846.08E-03
			-64.00		846.08E-03
			-63.50		846.08E-03
			-63.00		846.08E-03
			-62.50		846.50E-03
			-62.00		846.92E-03
			-61.50		846.92E-03
			-61.00		846.92E-03
			-60.50		846.92E-03
			-60.00		846.92E-03
			-59.50		846.92E-03
			-59.00		846.92E-03
			-58.50		846.92E-03
			-58.00		846.92E-03
			-57.50		846.92E-03
			-57.00		846.92E-03
			-56.50		846.92E-03
			-56.00		846.92E-03
			-55.50		846.92E-03
			-55.00		846.92E-03
			-54.50		846.92E-03
			-54.00		846.92E-03
			-53.50		846.92E-03
			-53.00		846.92E-03
			-52.50		846.50E-03
			-52.00		846.08E-03
			-51.50		846.08E-03
			-51.00		846.08E-03
			-50.50		845.66E-03
			-50.00		845.25E-03
			-49.50		845.25E-03
			-49.00		845.25E-03
			-48.50		845.25E-03
			-48.00		845.25E-03
			-47.50		845.25E-03
			-47.00		845.25E-03
			-46.50		845.25E-03
			-46.00		845.25E-03
			-45.50		844.83E-03
			-45.00		844.41E-03
			-44.50		844.41E-03
			-44.00		844.41E-03
			-43.50		844.41E-03
			-43.00		844.41E-03
			-42.50		843.99E-03
			-42.00		843.58E-03
			-41.50		843.58E-03
			-41.00		843.58E-03
			-40.50		843.16E-03
			-40.00		842.74E-03
			-39.50		842.32E-03
			-39.00		841.91E-03
			-38.50		841.91E-03
			-38.00		841.91E-03
			-37.50		841.50E-03
			-37.00		841.08E-03
			-36.50		841.08E-03
			-36.00		841.08E-03
			-35.50		840.66E-03
			-35.00		840.24E-03
			-34.50		840.24E-03
			-34.00		840.24E-03
			-33.50		840.24E-03
			-33.00		840.24E-03
			-32.50		840.24E-03
			-32.00		840.24E-03
			-31.50		840.24E-03
			-31.00		840.24E-03
			-30.50		840.24E-03
			-30.00		840.24E-03
			-29.50		840.24E-03
			-29.00		840.24E-03
			-28.50		840.24E-03
			-28.00		840.24E-03
			-27.50		840.66E-03
			-27.00		841.08E-03
			-26.50		840.66E-03
			-26.00		840.24E-03
			-25.50		840.24E-03
			-25.00		840.24E-03
			-24.50		840.24E-03
			-24.00		840.24E-03
			-23.50		840.24E-03
			-23.00		840.24E-03
			-22.50		839.83E-03
			-22.00		839.41E-03
			-21.50		839.41E-03
			-21.00		839.41E-03
			-20.50		838.99E-03
			-20.00		838.57E-03
			-19.50		838.57E-03
			-19.00		838.57E-03
			-18.50		838.16E-03
			-18.00		837.74E-03
			-17.50		837.74E-03
			-17.00		837.74E-03
			-16.50		837.74E-03
			-16.00		837.74E-03
			-15.50		837.32E-03
			-15.00		836.90E-03
			-14.50		836.90E-03
			-14.00		836.90E-03
			-13.50		836.90E-03
			-13.00		836.90E-03
			-12.50		836.49E-03
			-12.00		836.07E-03
			-11.50		836.07E-03
			-11.00		836.07E-03
			-10.50		836.07E-03
			-10.00		836.07E-03
			-9.50		836.07E-03
			-9.00		836.07E-03
			-8.50		835.65E-03
			-8.00		835.23E-03
			-7.50		835.23E-03
			-7.00		835.23E-03
			-6.50		835.23E-03
			-6.00		835.23E-03
			-5.50		835.23E-03
			-5.00		835.23E-03
			-4.50		835.23E-03
			-4.00		835.23E-03
			-3.50		834.82E-03
			-3.00		834.40E-03
			-2.50		834.40E-03
			-2.00		834.40E-03
			-1.50		834.40E-03
			-1.00		834.40E-03
			-0.50		834.40E-03
			0.00		834.40E-03
			0.50		834.40E-03
			1.00		834.40E-03
			1.50		834.40E-03
			2.00		834.40E-03
			2.50		834.40E-03
			3.00		834.40E-03
			3.50		834.82E-03
			4.00		835.23E-03
			4.50		835.23E-03
			5.00		835.23E-03
			5.50		835.23E-03
			6.00		835.23E-03
			6.50		835.23E-03
			7.00		835.23E-03
			7.50		835.23E-03
			8.00		835.23E-03
			8.50		835.65E-03
			9.00		836.07E-03
			9.50		836.07E-03
			10.00		836.07E-03
			10.50		836.07E-03
			11.00		836.07E-03
			11.50		836.07E-03
			12.00		836.07E-03
			12.50		836.49E-03
			13.00		836.90E-03
			13.50		836.90E-03
			14.00		836.90E-03
			14.50		836.90E-03
			15.00		836.90E-03
			15.50		837.32E-03
			16.00		837.74E-03
			16.50		837.74E-03
			17.00		837.74E-03
			17.50		837.74E-03
			18.00		837.74E-03
			18.50		838.16E-03
			19.00		838.57E-03
			19.50		838.57E-03
			20.00		838.57E-03
			20.50		838.99E-03
			21.00		839.41E-03
			21.50		839.41E-03
			22.00		839.41E-03
			22.50		839.83E-03
			23.00		840.24E-03
			23.50		840.24E-03
			24.00		840.24E-03
			24.50		840.24E-03
			25.00		840.24E-03
			25.50		840.24E-03
			26.00		840.24E-03
			26.50		840.66E-03
			27.00		841.08E-03
			27.50		840.66E-03
			28.00		840.24E-03
			28.50		840.24E-03
			29.00		840.24E-03
			29.50		840.24E-03
			30.00		840.24E-03
			30.50		840.24E-03
			31.00		840.24E-03
			31.50		840.24E-03
			32.00		840.24E-03
			32.50		840.24E-03
			33.00		840.24E-03
			33.50		840.24E-03
			34.00		840.24E-03
			34.50		840.24E-03
			35.00		840.24E-03
			35.50		840.66E-03
			36.00		841.08E-03
			36.50		841.08E-03
			37.00		841.08E-03
			37.50		841.50E-03
			38.00		841.91E-03
			38.50		841.91E-03
			39.00		841.91E-03
			39.50		842.32E-03
			40.00		842.74E-03
			40.50		843.16E-03
			41.00		843.58E-03
			41.50		843.58E-03
			42.00		843.58E-03
			42.50		843.99E-03
			43.00		844.41E-03
			43.50		844.41E-03
			44.00		844.41E-03
			44.50		844.41E-03
			45.00		844.41E-03
			45.50		844.83E-03
			46.00		845.25E-03
			46.50		845.25E-03
			47.00		845.25E-03
			47.50		845.25E-03
			48.00		845.25E-03
			48.50		845.25E-03
			49.00		845.25E-03
			49.50		845.25E-03
			50.00		845.25E-03
			50.50		845.66E-03
			51.00		846.08E-03
			51.50		846.08E-03
			52.00		846.08E-03
			52.50		846.50E-03
			53.00		846.92E-03
			53.50		846.92E-03
			54.00		846.92E-03
			54.50		846.92E-03
			55.00		846.92E-03
			55.50		846.92E-03
			56.00		846.92E-03
			56.50		846.92E-03
			57.00		846.92E-03
			57.50		846.92E-03
			58.00		846.92E-03
			58.50		846.92E-03
			59.00		846.92E-03
			59.50		846.92E-03
			60.00		846.92E-03
			60.50		846.92E-03
			61.00		846.92E-03
			61.50		846.92E-03
			62.00		846.92E-03
			62.50		846.50E-03
			63.00		846.08E-03
			63.50		846.08E-03
			64.00		846.08E-03
			64.50		846.08E-03
			65.00		846.08E-03
			65.50		846.08E-03
			66.00		846.08E-03
			66.50		846.08E-03
			67.00		846.08E-03
			67.50		846.08E-03
			68.00		846.08E-03
			68.50		846.50E-03
			69.00		846.92E-03
			69.50		846.92E-03
			70.00		846.92E-03
			70.50		846.92E-03
			71.00		846.92E-03
			71.50		846.92E-03
			72.00		846.92E-03
			72.50		846.92E-03
			73.00		846.92E-03
			73.50		846.92E-03
			74.00		846.92E-03
			74.50		846.92E-03
			75.00		846.92E-03
			75.50		846.92E-03
			76.00		846.92E-03
			76.50		846.92E-03
			77.00		846.92E-03
			77.50		846.92E-03
			78.00		846.92E-03
			78.50		846.92E-03
			79.00		846.92E-03
			79.50		846.92E-03
			80.00		846.92E-03
			80.50		846.50E-03
			81.00		846.08E-03
			81.50		846.08E-03
			82.00		846.08E-03
			82.50		845.66E-03
			83.00		845.25E-03
			83.50		845.25E-03
			84.00		845.25E-03
			84.50		845.25E-03
			85.00		845.25E-03
			85.50		845.25E-03
			86.00		845.25E-03
			86.50		845.25E-03
			87.00		845.25E-03
			87.50		845.25E-03
			88.00		845.25E-03
			88.50		845.25E-03
			89.00		845.25E-03
			89.50		844.83E-03
			90.00		844.41E-03
			90.50		844.41E-03
			91.00		844.41E-03
			91.50		844.41E-03
			92.00		844.41E-03
			92.50		844.41E-03
			93.00		844.41E-03
			93.50		844.41E-03
			94.00		844.41E-03
			94.50		844.41E-03
			95.00		844.41E-03
			95.50		844.41E-03
			96.00		844.41E-03
			96.50		844.41E-03
			97.00		844.41E-03
			97.50		843.99E-03
			98.00		843.58E-03
			98.50		843.58E-03
			99.00		843.58E-03
			99.50		843.58E-03
			100.00		843.58E-03
			100.50		843.58E-03
			101.00		843.58E-03
			101.50		843.58E-03
			102.00		843.58E-03
			102.50		843.16E-03
			103.00		842.74E-03
			103.50		842.74E-03
			104.00		842.74E-03
			104.50		842.74E-03
			105.00		842.74E-03
			105.50		842.74E-03
			106.00		842.74E-03
			106.50		842.32E-03
			107.00		841.91E-03
			107.50		841.91E-03
			108.00		841.91E-03
			108.50		841.91E-03
			109.00		841.91E-03
			109.50		841.50E-03
			110.00		841.08E-03
			110.50		841.08E-03
			111.00		841.08E-03
			111.50		841.08E-03
			112.00		841.08E-03
			112.50		840.66E-03
			113.00		840.24E-03
			113.50		840.24E-03
			114.00		840.24E-03
			114.50		840.24E-03
			115.00		840.24E-03
			115.50		839.83E-03
			116.00		839.41E-03
			116.50		839.41E-03
			117.00		839.41E-03
			117.50		839.41E-03
			118.00		839.41E-03
			118.50		838.99E-03
			119.00		838.57E-03
			119.50		838.16E-03
			120.00		837.74E-03
			120.50		837.74E-03
			121.00		837.74E-03
			121.50		837.74E-03
			122.00		837.74E-03
			122.50		837.32E-03
			123.00		836.90E-03
			123.50		836.90E-03
			124.00		836.90E-03
			124.50		836.90E-03
			125.00		836.90E-03
			125.50		836.49E-03
			126.00		836.07E-03
			126.50		836.07E-03
			127.00		836.07E-03
			127.50		835.65E-03
			128.00		835.23E-03
			128.50		834.82E-03
			129.00		834.40E-03
			129.50		834.40E-03
			130.00		834.40E-03
			130.50		833.98E-03
			131.00		833.57E-03
			131.50		833.57E-03
			132.00		833.57E-03
			132.50		833.57E-03
			133.00		833.57E-03
			133.50		833.15E-03
			134.00		832.73E-03
			134.50		832.31E-03
			135.00		831.90E-03
			135.50		831.48E-03
			136.00		831.06E-03
			136.50		831.06E-03
			137.00		831.06E-03
			137.50		831.06E-03
			138.00		831.06E-03
			138.50		830.64E-03
			139.00		830.23E-03
			139.50		829.81E-03
			140.00		829.39E-03
			140.50		829.39E-03
			141.00		829.39E-03
			141.50		828.97E-03
			142.00		828.56E-03
			142.50		828.14E-03
			143.00		827.72E-03
			143.50		827.30E-03
			144.00		826.89E-03
			144.50		826.48E-03
			145.00		826.06E-03
			145.50		826.06E-03
			146.00		826.06E-03
			146.50		825.64E-03
			147.00		825.22E-03
			147.50		825.22E-03
			148.00		825.22E-03
			148.50		824.38E-03
			149.00		823.55E-03
			149.50		823.14E-03
			150.00		822.72E-03
			150.50		822.30E-03
			151.00		821.88E-03
			151.50		821.47E-03
			152.00		821.05E-03
			152.50		820.63E-03
			153.00		820.22E-03
			153.50		819.80E-03
			154.00		819.38E-03
			154.50		818.96E-03
			155.00		818.55E-03
			155.50		818.13E-03
			156.00		817.71E-03
			156.50		817.29E-03
			157.00		816.88E-03
			157.50		816.46E-03
			158.00		816.04E-03
			158.50		815.20E-03
			159.00		814.37E-03
			159.50		813.95E-03
			160.00		813.54E-03
			160.50		813.13E-03
			161.00		812.71E-03
			161.50		812.29E-03
			162.00		811.87E-03
			162.50		811.46E-03
			163.00		811.04E-03
			163.50		810.62E-03
			164.00		810.20E-03
			164.50		809.36E-03
			165.00		808.53E-03
			165.50		808.12E-03
			166.00		807.70E-03
			166.50		806.86E-03
			167.00		806.03E-03
			167.50		805.19E-03
			168.00		804.36E-03
			168.50		803.94E-03
			169.00		803.53E-03
			169.50		802.69E-03
			170.00		801.86E-03
			170.50		801.02E-03
			171.00		800.19E-03
			171.50		799.36E-03
			172.00		798.52E-03
			172.50		797.69E-03
			173.00		796.85E-03
			173.50		796.02E-03
			174.00		795.18E-03
			174.50		794.35E-03
			175.00		793.51E-03
			175.50		792.68E-03
			176.00		791.85E-03
			176.50		791.02E-03
			177.00		790.18E-03
			177.50		789.35E-03
			178.00		788.51E-03
			178.50		787.68E-03
			179.00		786.84E-03
			179.50		785.59E-03
			180.00		784.34E-03
			180.50		783.51E-03
			181.00		782.67E-03
			181.50		781.84E-03
			182.00		781.00E-03
			182.50		780.17E-03
			183.00		779.33E-03
			183.50		778.08E-03
			184.00		776.83E-03
			184.50		775.58E-03
			185.00		774.32E-03
			185.50		772.66E-03
			186.00		770.99E-03
			186.50		769.73E-03
			187.00		768.48E-03
			187.50		766.81E-03
			188.00		765.14E-03
			188.50		763.48E-03
			189.00		761.81E-03
			189.50		759.72E-03
			190.00		757.64E-03
			190.50		755.13E-03
			191.00		752.63E-03
			191.50		749.29E-03
			192.00		745.95E-03
			192.50		741.78E-03
			193.00		737.61E-03
			193.50		732.60E-03
			194.00		727.60E-03
			194.50		720.50E-03
			195.00		713.41E-03
			195.50		702.14E-03
			196.00		690.88E-03
			196.50		671.69E-03
			197.00		652.50E-03
			197.50		626.63E-03
			198.00		600.77E-03
			198.50		569.06E-03
			199.00		537.35E-03
			199.50		500.64E-03
			200.00		463.93E-03
			200.50		426.80E-03
			201.00		389.66E-03
			201.50		356.29E-03
			202.00		322.91E-03
			202.50		293.70E-03
			203.00		264.50E-03
			203.50		241.97E-03
			204.00		219.45E-03
			204.50		204.84E-03
			205.00		190.24E-03
			205.50		181.48E-03
			206.00		172.72E-03
			206.50		166.88E-03
			207.00		161.04E-03
			207.50		156.45E-03
			208.00		151.86E-03
			208.50		148.10E-03
			209.00		144.35E-03
			209.50		141.85E-03
			210.00		139.34E-03
			210.50		136.84E-03
			211.00		134.34E-03
			211.50		131.83E-03
			212.00		129.33E-03
			212.50		127.24E-03
			213.00		125.16E-03
			213.50		123.49E-03
			214.00		121.82E-03
			214.50		120.15E-03
			215.00		118.48E-03
			215.50		116.39E-03
			216.00		114.31E-03
			216.50		113.06E-03
			217.00		111.81E-03
			217.50		110.56E-03
			218.00		109.31E-03
			218.50		107.64E-03
			219.00		105.97E-03
			219.50		104.72E-03
			220.00		103.47E-03
			220.50		102.21E-03
			221.00		100.96E-03
			221.50		99.709E-03
			222.00		98.459E-03
			222.50		97.208E-03
			223.00		95.956E-03
			223.50		94.704E-03
			224.00		93.453E-03
			224.50		92.618E-03
			225.00		91.784E-03
			225.50		90.950E-03
			226.00		90.115E-03
			226.50		88.864E-03
			227.00		87.612E-03
			227.50		86.778E-03
			228.00		85.943E-03
			228.50		85.109E-03
			229.00		84.274E-03
			229.50		83.023E-03
			230.00		81.771E-03
			230.50		80.936E-03
			231.00		80.102E-03
			231.50		79.268E-03
			232.00		78.434E-03
			232.50		77.599E-03
			233.00		76.765E-03
			233.50		75.931E-03
			234.00		75.096E-03
		END_DATA
	END_SCAN  3
	BEGIN_SCAN  4
		TASK_NAME=tba PDD Profiles
		PROGRAM=WaterTankScans
		COMMENT=5x X
		MEAS_DATE=08-Feb-2021 10:38:40
		LINAC=TRUEBEAMSN4791
		MODALITY=X
		ISOCENTER=1000.00
		INPLANE_AXIS=Y
		CROSSPLANE_AXIS=X
		DEPTH_AXIS=Depth
		INPLANE_AXIS_DIR=TARGET_GUN
		CROSSPLANE_AXIS_DIR=LEFT_RIGHT
		DEPTH_AXIS_DIR=UP_DOWN
		ENERGY=6.00
		NOMINAL_DMAX=15.00
		SSD=900.00
		SCD=450.00
		WEDGE_ANGLE=0.00
		FIELD_INPLANE=400.00
		FIELD_CROSSPLANE=400.00
		FIELD_TYPE=RECTANGULAR
		GANTRY=0.00
		GANTRY_UPRIGHT_POSITION=0
		GANTRY_ROTATION=CW
		COLL_ANGLE=0.00
		COLL_OFFSET_INPLANE=0.00
		COLL_OFFSET_CROSSPLANE=0.00
		SCAN_DEVICE=BeamScan
		SCAN_DEVICE_SETUP=BARA_LEFT_RIGHT
		ELECTROMETER=BeamScan
		RANGE_FIELD=LOW
		RANGE_REFERENCE=MEDIUM
		DETECTOR=THIMBLE_CHAMBER
		DETECTOR_SUBCODE=SEMIFLEX
		DETECTOR_RADIUS=2.40
		DETECTOR_NAME=PTW 31021 Semiflex 3D (1)
		DETECTOR_SN=142316
		DETECTOR_CALIBRATION=588000000.00
		DETECTOR_IS_CALIBRATED=1
		DETECTOR_REFERENCE=THIMBLE_CHAMBER
		DETECTOR_REFERENCE_SUBCODE=SEMIFLEX
		DETECTOR_REFERENCE_RADIUS=2.75
		DETECTOR_REFERENCE_NAME=PTW 31010 Semiflex (1)
		DETECTOR_REFERENCE_SN=ÃƒÆ’Ã‚Â¢ÃƒÂ¢Ã¢â‚¬Å¡Ã‚Â¬ÃƒÂ¢Ã¢â€šÂ¬
		DETECTOR_REFERENCE_IS_CALIBRATED=0
		DETECTOR_REFERENCE_CALIBRATION=303000000.00
		DETECTOR_HV=400.0
		DETECTOR_REFERENCE_HV=400.0
		DETECTOR_ORIENTATION=HORIZONTAL
		FILTER=FF
		SCAN_SPEED_PROFILE=10.00
		SCAN_PROF_SPEED_DEP=DEPTH
		SCAN_SPEED_PDD=0.00
		SCAN_PDD_SPEED_DEP=ENERGY
		DETECTOR_TYPE=T31021
		REF_FIELD_DEPTH=300.00
		REF_FIELD_DEFINED=ISOCENTER
		REF_FIELD_INPLANE=100.00
		REF_FIELD_CROSSPLANE=100.00
		REF_SCAN_POSITIONS=-85.00;-84.00;-83.00;-82.00;-81.00;-80.00;-79.00;-78.00;-77.00;-76.00;-75.00;-74.00;-73.00;-72.00;-71.00;-70.00;-69.00;-68.00;-67.00;-66.00;-65.00;-64.00;-63.00;-62.00;-61.00;-60.00;-59.00;-58.00;-57.00;-56.00;-55.00;-54.00;-53.00;-52.00;-51.00;-50.00;-49.00;-48.00;-47.00;-46.00;-45.00;-44.00;-43.00;-42.00;-41.00;-40.00;-39.00;-38.00;-37.00;-36.00;-35.00;-34.00;-33.00;-32.00;-31.00;-30.00;-29.00;-28.00;-27.00;-26.00;-25.00;-24.00;-23.00;-22.00;-21.00;-20.00;-19.00;-18.00;-17.00;-16.00;-15.00;-14.00;-13.00;-12.00;-11.00;-10.00;-9.00;-8.00;-7.00;-6.00;-5.00;-4.00;-3.00;-2.00;-1.00;0.00;1.00;2.00;3.00;4.00;5.00;6.00;7.00;8.00;9.00;10.00;11.00;12.00;13.00;14.00;15.00;16.00;17.00;18.00;19.00;20.00;21.00;22.00;23.00;24.00;25.00;26.00;27.00;28.00;29.00;30.00;31.00;32.00;33.00;34.00;35.00;36.00;37.00;38.00;39.00;40.00;41.00;42.00;43.00;44.00;45.00;46.00;47.00;48.00;49.00;50.00;51.00;52.00;53.00;54.00;55.00;56.00;57.00;58.00;59.00;60.00;61.00;62.00;63.00;64.00;65.00;66.00;67.00;68.00;69.00;70.00;71.00;72.00;73.00;74.00;75.00;76.00;77.00;78.00;79.00;80.00;81.00;82.00;83.00;84.00;85.00;
		REF_OVERSCAN_FACTOR=1.00
		SCAN_CURVETYPE=CROSSPLANE_PROFILE
		SCAN_DEPTH=200.00
		SCAN_OFFAXIS_INPLANE=0.00
		SCAN_OFFAXIS_CROSSPLANE=0.00
		SCAN_ANGLE=0.00
		SCAN_DIAGONAL=NOT_DIAGONAL
		SCAN_DIRECTION=NEGATIVE
		MEAS_MEDIUM=WATER
		MEAS_PRESET=MEAS_CONTINUOUS_REFERENCE_SCAN
		MEAS_TIME=0.100
		MEAS_UNIT=A.U.
		INCLINATION_ANGLE=0.00
		PRESSURE=1013.25
		TEMPERATURE=20.00
		NORM_TEMPERATURE=20.00
		CORRECTION_FACTOR=1.0000
		EXPECTED_MAX_DOSE_RATE=3.00
		EPOM_DEPTH_SHIFT=0.2
		EPOM_MODE=SHIFT_PROTOCOL
		CORRECTIONS=SMOOTHED_CORR;CAX_CORR;SYMMETRY_CORR;INTERPOLATED_CORR;
		BEGIN_DATA
			-259.00		61.822E-03
			-258.50		62.058E-03
			-258.00		62.293E-03
			-257.50		62.792E-03
			-257.00		63.292E-03
			-256.50		63.792E-03
			-256.00		64.292E-03
			-255.50		64.728E-03
			-255.00		65.164E-03
			-254.50		65.727E-03
			-254.00		66.290E-03
			-253.50		66.804E-03
			-253.00		67.319E-03
			-252.50		67.961E-03
			-252.00		68.602E-03
			-251.50		69.280E-03
			-251.00		69.957E-03
			-250.50		70.519E-03
			-250.00		71.081E-03
			-249.50		71.598E-03
			-249.00		72.114E-03
			-248.50		72.787E-03
			-248.00		73.460E-03
			-247.50		74.012E-03
			-247.00		74.564E-03
			-246.50		75.199E-03
			-246.00		75.834E-03
			-245.50		76.590E-03
			-245.00		77.346E-03
			-244.50		78.082E-03
			-244.00		78.817E-03
			-243.50		79.438E-03
			-243.00		80.058E-03
			-242.50		80.733E-03
			-242.00		81.407E-03
			-241.50		82.124E-03
			-241.00		82.840E-03
			-240.50		83.647E-03
			-240.00		84.453E-03
			-239.50		85.239E-03
			-239.00		86.026E-03
			-238.50		86.797E-03
			-238.00		87.569E-03
			-237.50		88.436E-03
			-237.00		89.304E-03
			-236.50		90.151E-03
			-236.00		90.997E-03
			-235.50		91.813E-03
			-235.00		92.629E-03
			-234.50		93.597E-03
			-234.00		94.565E-03
			-233.50		95.613E-03
			-233.00		96.661E-03
			-232.50		97.738E-03
			-232.00		98.815E-03
			-231.50		99.963E-03
			-231.00		101.11E-03
			-230.50		102.42E-03
			-230.00		103.74E-03
			-229.50		105.28E-03
			-229.00		106.81E-03
			-228.50		108.66E-03
			-228.00		110.50E-03
			-227.50		112.74E-03
			-227.00		114.98E-03
			-226.50		117.93E-03
			-226.00		120.87E-03
			-225.50		125.39E-03
			-225.00		129.90E-03
			-224.50		136.64E-03
			-224.00		143.37E-03
			-223.50		153.38E-03
			-223.00		163.39E-03
			-222.50		176.46E-03
			-222.00		189.53E-03
			-221.50		204.74E-03
			-221.00		219.95E-03
			-220.50		236.86E-03
			-220.00		253.77E-03
			-219.50		270.77E-03
			-219.00		287.77E-03
			-218.50		302.82E-03
			-218.00		317.87E-03
			-217.50		330.51E-03
			-217.00		343.14E-03
			-216.50		352.43E-03
			-216.00		361.73E-03
			-215.50		367.73E-03
			-215.00		373.74E-03
			-214.50		378.02E-03
			-214.00		382.30E-03
			-213.50		385.33E-03
			-213.00		388.36E-03
			-212.50		390.37E-03
			-212.00		392.37E-03
			-211.50		394.12E-03
			-211.00		395.88E-03
			-210.50		397.26E-03
			-210.00		398.64E-03
			-209.50		399.94E-03
			-209.00		401.24E-03
			-208.50		402.48E-03
			-208.00		403.72E-03
			-207.50		404.88E-03
			-207.00		406.04E-03
			-206.50		407.07E-03
			-206.00		408.09E-03
			-205.50		408.98E-03
			-205.00		409.87E-03
			-204.50		410.69E-03
			-204.00		411.50E-03
			-203.50		412.26E-03
			-203.00		413.02E-03
			-202.50		413.76E-03
			-202.00		414.50E-03
			-201.50		415.24E-03
			-201.00		415.98E-03
			-200.50		416.77E-03
			-200.00		417.57E-03
			-199.50		418.35E-03
			-199.00		419.14E-03
			-198.50		419.85E-03
			-198.00		420.57E-03
			-197.50		421.23E-03
			-197.00		421.89E-03
			-196.50		422.50E-03
			-196.00		423.10E-03
			-195.50		423.71E-03
			-195.00		424.32E-03
			-194.50		424.92E-03
			-194.00		425.52E-03
			-193.50		426.10E-03
			-193.00		426.67E-03
			-192.50		427.26E-03
			-192.00		427.84E-03
			-191.50		428.44E-03
			-191.00		429.04E-03
			-190.50		429.64E-03
			-190.00		430.24E-03
			-189.50		430.89E-03
			-189.00		431.54E-03
			-188.50		432.21E-03
			-188.00		432.87E-03
			-187.50		433.48E-03
			-187.00		434.09E-03
			-186.50		434.63E-03
			-186.00		435.17E-03
			-185.50		435.67E-03
			-185.00		436.16E-03
			-184.50		436.66E-03
			-184.00		437.17E-03
			-183.50		437.70E-03
			-183.00		438.23E-03
			-182.50		438.80E-03
			-182.00		439.36E-03
			-181.50		439.88E-03
			-181.00		440.39E-03
			-180.50		440.85E-03
			-180.00		441.31E-03
			-179.50		441.77E-03
			-179.00		442.23E-03
			-178.50		442.71E-03
			-178.00		443.20E-03
			-177.50		443.70E-03
			-177.00		444.19E-03
			-176.50		444.70E-03
			-176.00		445.21E-03
			-175.50		445.69E-03
			-175.00		446.18E-03
			-174.50		446.62E-03
			-174.00		447.07E-03
			-173.50		447.47E-03
			-173.00		447.87E-03
			-172.50		448.26E-03
			-172.00		448.65E-03
			-171.50		449.07E-03
			-171.00		449.50E-03
			-170.50		449.92E-03
			-170.00		450.34E-03
			-169.50		450.77E-03
			-169.00		451.19E-03
			-168.50		451.65E-03
			-168.00		452.10E-03
			-167.50		452.57E-03
			-167.00		453.04E-03
			-166.50		453.49E-03
			-166.00		453.93E-03
			-165.50		454.31E-03
			-165.00		454.69E-03
			-164.50		455.05E-03
			-164.00		455.42E-03
			-163.50		455.74E-03
			-163.00		456.06E-03
			-162.50		456.33E-03
			-162.00		456.60E-03
			-161.50		456.87E-03
			-161.00		457.13E-03
			-160.50		457.45E-03
			-160.00		457.77E-03
			-159.50		458.15E-03
			-159.00		458.54E-03
			-158.50		458.99E-03
			-158.00		459.45E-03
			-157.50		459.90E-03
			-157.00		460.36E-03
			-156.50		460.76E-03
			-156.00		461.16E-03
			-155.50		461.45E-03
			-155.00		461.75E-03
			-154.50		462.00E-03
			-154.00		462.25E-03
			-153.50		462.55E-03
			-153.00		462.86E-03
			-152.50		463.21E-03
			-152.00		463.57E-03
			-151.50		463.91E-03
			-151.00		464.24E-03
			-150.50		464.53E-03
			-150.00		464.81E-03
			-149.50		464.99E-03
			-149.00		465.17E-03
			-148.50		465.31E-03
			-148.00		465.45E-03
			-147.50		465.66E-03
			-147.00		465.87E-03
			-146.50		466.22E-03
			-146.00		466.57E-03
			-145.50		466.98E-03
			-145.00		467.40E-03
			-144.50		467.77E-03
			-144.00		468.14E-03
			-143.50		468.42E-03
			-143.00		468.69E-03
			-142.50		468.96E-03
			-142.00		469.23E-03
			-141.50		469.56E-03
			-141.00		469.89E-03
			-140.50		470.23E-03
			-140.00		470.58E-03
			-139.50		470.88E-03
			-139.00		471.18E-03
			-138.50		471.44E-03
			-138.00		471.69E-03
			-137.50		471.93E-03
			-137.00		472.16E-03
			-136.50		472.35E-03
			-136.00		472.54E-03
			-135.50		472.67E-03
			-135.00		472.81E-03
			-134.50		472.92E-03
			-134.00		473.03E-03
			-133.50		473.18E-03
			-133.00		473.33E-03
			-132.50		473.59E-03
			-132.00		473.85E-03
			-131.50		474.17E-03
			-131.00		474.49E-03
			-130.50		474.83E-03
			-130.00		475.18E-03
			-129.50		475.45E-03
			-129.00		475.73E-03
			-128.50		475.92E-03
			-128.00		476.10E-03
			-127.50		476.24E-03
			-127.00		476.39E-03
			-126.50		476.54E-03
			-126.00		476.68E-03
			-125.50		476.91E-03
			-125.00		477.14E-03
			-124.50		477.42E-03
			-124.00		477.70E-03
			-123.50		477.98E-03
			-123.00		478.26E-03
			-122.50		478.52E-03
			-122.00		478.79E-03
			-121.50		478.97E-03
			-121.00		479.16E-03
			-120.50		479.28E-03
			-120.00		479.40E-03
			-119.50		479.52E-03
			-119.00		479.65E-03
			-118.50		479.82E-03
			-118.00		480.00E-03
			-117.50		480.23E-03
			-117.00		480.47E-03
			-116.50		480.66E-03
			-116.00		480.86E-03
			-115.50		481.01E-03
			-115.00		481.16E-03
			-114.50		481.31E-03
			-114.00		481.46E-03
			-113.50		481.63E-03
			-113.00		481.79E-03
			-112.50		481.97E-03
			-112.00		482.14E-03
			-111.50		482.34E-03
			-111.00		482.53E-03
			-110.50		482.74E-03
			-110.00		482.96E-03
			-109.50		483.20E-03
			-109.00		483.44E-03
			-108.50		483.67E-03
			-108.00		483.90E-03
			-107.50		484.11E-03
			-107.00		484.32E-03
			-106.50		484.52E-03
			-106.00		484.71E-03
			-105.50		484.91E-03
			-105.00		485.10E-03
			-104.50		485.29E-03
			-104.00		485.48E-03
			-103.50		485.65E-03
			-103.00		485.82E-03
			-102.50		485.97E-03
			-102.00		486.11E-03
			-101.50		486.25E-03
			-101.00		486.38E-03
			-100.50		486.49E-03
			-100.00		486.60E-03
			-99.50		486.73E-03
			-99.00		486.86E-03
			-98.50		486.98E-03
			-98.00		487.10E-03
			-97.50		487.19E-03
			-97.00		487.28E-03
			-96.50		487.37E-03
			-96.00		487.46E-03
			-95.50		487.60E-03
			-95.00		487.74E-03
			-94.50		487.95E-03
			-94.00		488.16E-03
			-93.50		488.39E-03
			-93.00		488.62E-03
			-92.50		488.77E-03
			-92.00		488.92E-03
			-91.50		489.01E-03
			-91.00		489.11E-03
			-90.50		489.21E-03
			-90.00		489.30E-03
			-89.50		489.42E-03
			-89.00		489.54E-03
			-88.50		489.68E-03
			-88.00		489.83E-03
			-87.50		489.95E-03
			-87.00		490.07E-03
			-86.50		490.14E-03
			-86.00		490.20E-03
			-85.50		490.30E-03
			-85.00		490.40E-03
			-84.50		490.58E-03
			-84.00		490.75E-03
			-83.50		490.94E-03
			-83.00		491.12E-03
			-82.50		491.27E-03
			-82.00		491.42E-03
			-81.50		491.56E-03
			-81.00		491.71E-03
			-80.50		491.91E-03
			-80.00		492.11E-03
			-79.50		492.34E-03
			-79.00		492.56E-03
			-78.50		492.70E-03
			-78.00		492.84E-03
			-77.50		492.86E-03
			-77.00		492.88E-03
			-76.50		492.81E-03
			-76.00		492.75E-03
			-75.50		492.67E-03
			-75.00		492.59E-03
			-74.50		492.59E-03
			-74.00		492.58E-03
			-73.50		492.64E-03
			-73.00		492.70E-03
			-72.50		492.83E-03
			-72.00		492.96E-03
			-71.50		493.08E-03
			-71.00		493.19E-03
			-70.50		493.27E-03
			-70.00		493.36E-03
			-69.50		493.45E-03
			-69.00		493.54E-03
			-68.50		493.66E-03
			-68.00		493.78E-03
			-67.50		493.96E-03
			-67.00		494.14E-03
			-66.50		494.33E-03
			-66.00		494.53E-03
			-65.50		494.66E-03
			-65.00		494.78E-03
			-64.50		494.82E-03
			-64.00		494.86E-03
			-63.50		494.85E-03
			-63.00		494.83E-03
			-62.50		494.81E-03
			-62.00		494.80E-03
			-61.50		494.85E-03
			-61.00		494.89E-03
			-60.50		494.94E-03
			-60.00		494.99E-03
			-59.50		495.03E-03
			-59.00		495.07E-03
			-58.50		495.05E-03
			-58.00		495.03E-03
			-57.50		495.02E-03
			-57.00		495.01E-03
			-56.50		495.07E-03
			-56.00		495.13E-03
			-55.50		495.25E-03
			-55.00		495.38E-03
			-54.50		495.51E-03
			-54.00		495.65E-03
			-53.50		495.71E-03
			-53.00		495.77E-03
			-52.50		495.77E-03
			-52.00		495.76E-03
			-51.50		495.71E-03
			-51.00		495.65E-03
			-50.50		495.58E-03
			-50.00		495.52E-03
			-49.50		495.48E-03
			-49.00		495.44E-03
			-48.50		495.45E-03
			-48.00		495.46E-03
			-47.50		495.49E-03
			-47.00		495.52E-03
			-46.50		495.54E-03
			-46.00		495.57E-03
			-45.50		495.54E-03
			-45.00		495.52E-03
			-44.50		495.47E-03
			-44.00		495.42E-03
			-43.50		495.37E-03
			-43.00		495.32E-03
			-42.50		495.30E-03
			-42.00		495.28E-03
			-41.50		495.31E-03
			-41.00		495.34E-03
			-40.50		495.37E-03
			-40.00		495.40E-03
			-39.50		495.39E-03
			-39.00		495.38E-03
			-38.50		495.33E-03
			-38.00		495.28E-03
			-37.50		495.22E-03
			-37.00		495.16E-03
			-36.50		495.14E-03
			-36.00		495.11E-03
			-35.50		495.09E-03
			-35.00		495.07E-03
			-34.50		495.04E-03
			-34.00		495.01E-03
			-33.50		494.98E-03
			-33.00		494.94E-03
			-32.50		494.94E-03
			-32.00		494.95E-03
			-31.50		495.01E-03
			-31.00		495.06E-03
			-30.50		495.11E-03
			-30.00		495.16E-03
			-29.50		495.23E-03
			-29.00		495.30E-03
			-28.50		495.37E-03
			-28.00		495.45E-03
			-27.50		495.47E-03
			-27.00		495.50E-03
			-26.50		495.53E-03
			-26.00		495.56E-03
			-25.50		495.55E-03
			-25.00		495.55E-03
			-24.50		495.53E-03
			-24.00		495.50E-03
			-23.50		495.45E-03
			-23.00		495.39E-03
			-22.50		495.31E-03
			-22.00		495.23E-03
			-21.50		495.19E-03
			-21.00		495.15E-03
			-20.50		495.18E-03
			-20.00		495.21E-03
			-19.50		495.25E-03
			-19.00		495.30E-03
			-18.50		495.33E-03
			-18.00		495.37E-03
			-17.50		495.41E-03
			-17.00		495.44E-03
			-16.50		495.43E-03
			-16.00		495.42E-03
			-15.50		495.37E-03
			-15.00		495.32E-03
			-14.50		495.24E-03
			-14.00		495.17E-03
			-13.50		495.08E-03
			-13.00		494.99E-03
			-12.50		494.89E-03
			-12.00		494.80E-03
			-11.50		494.65E-03
			-11.00		494.50E-03
			-10.50		494.33E-03
			-10.00		494.16E-03
			-9.50		493.98E-03
			-9.00		493.81E-03
			-8.50		493.68E-03
			-8.00		493.55E-03
			-7.50		493.52E-03
			-7.00		493.48E-03
			-6.50		493.56E-03
			-6.00		493.64E-03
			-5.50		493.76E-03
			-5.00		493.89E-03
			-4.50		493.93E-03
			-4.00		493.98E-03
			-3.50		493.92E-03
			-3.00		493.87E-03
			-2.50		493.79E-03
			-2.00		493.72E-03
			-1.50		493.67E-03
			-1.00		493.63E-03
			-0.50		493.63E-03
			0.00		493.63E-03
			0.50		493.63E-03
			1.00		493.63E-03
			1.50		493.67E-03
			2.00		493.72E-03
			2.50		493.79E-03
			3.00		493.87E-03
			3.50		493.92E-03
			4.00		493.98E-03
			4.50		493.93E-03
			5.00		493.89E-03
			5.50		493.76E-03
			6.00		493.64E-03
			6.50		493.56E-03
			7.00		493.48E-03
			7.50		493.52E-03
			8.00		493.55E-03
			8.50		493.68E-03
			9.00		493.81E-03
			9.50		493.98E-03
			10.00		494.16E-03
			10.50		494.33E-03
			11.00		494.50E-03
			11.50		494.65E-03
			12.00		494.80E-03
			12.50		494.89E-03
			13.00		494.99E-03
			13.50		495.08E-03
			14.00		495.17E-03
			14.50		495.24E-03
			15.00		495.32E-03
			15.50		495.37E-03
			16.00		495.42E-03
			16.50		495.43E-03
			17.00		495.44E-03
			17.50		495.41E-03
			18.00		495.37E-03
			18.50		495.33E-03
			19.00		495.30E-03
			19.50		495.25E-03
			20.00		495.21E-03
			20.50		495.18E-03
			21.00		495.15E-03
			21.50		495.19E-03
			22.00		495.23E-03
			22.50		495.31E-03
			23.00		495.39E-03
			23.50		495.45E-03
			24.00		495.50E-03
			24.50		495.53E-03
			25.00		495.55E-03
			25.50		495.55E-03
			26.00		495.56E-03
			26.50		495.53E-03
			27.00		495.50E-03
			27.50		495.47E-03
			28.00		495.45E-03
			28.50		495.37E-03
			29.00		495.30E-03
			29.50		495.23E-03
			30.00		495.16E-03
			30.50		495.11E-03
			31.00		495.06E-03
			31.50		495.01E-03
			32.00		494.95E-03
			32.50		494.94E-03
			33.00		494.94E-03
			33.50		494.98E-03
			34.00		495.01E-03
			34.50		495.04E-03
			35.00		495.07E-03
			35.50		495.09E-03
			36.00		495.11E-03
			36.50		495.14E-03
			37.00		495.16E-03
			37.50		495.22E-03
			38.00		495.28E-03
			38.50		495.33E-03
			39.00		495.38E-03
			39.50		495.39E-03
			40.00		495.40E-03
			40.50		495.37E-03
			41.00		495.34E-03
			41.50		495.31E-03
			42.00		495.28E-03
			42.50		495.30E-03
			43.00		495.32E-03
			43.50		495.37E-03
			44.00		495.42E-03
			44.50		495.47E-03
			45.00		495.52E-03
			45.50		495.54E-03
			46.00		495.57E-03
			46.50		495.54E-03
			47.00		495.52E-03
			47.50		495.49E-03
			48.00		495.46E-03
			48.50		495.45E-03
			49.00		495.44E-03
			49.50		495.48E-03
			50.00		495.52E-03
			50.50		495.58E-03
			51.00		495.65E-03
			51.50		495.71E-03
			52.00		495.76E-03
			52.50		495.77E-03
			53.00		495.77E-03
			53.50		495.71E-03
			54.00		495.65E-03
			54.50		495.51E-03
			55.00		495.38E-03
			55.50		495.25E-03
			56.00		495.13E-03
			56.50		495.07E-03
			57.00		495.01E-03
			57.50		495.02E-03
			58.00		495.03E-03
			58.50		495.05E-03
			59.00		495.07E-03
			59.50		495.03E-03
			60.00		494.99E-03
			60.50		494.94E-03
			61.00		494.89E-03
			61.50		494.85E-03
			62.00		494.80E-03
			62.50		494.81E-03
			63.00		494.83E-03
			63.50		494.85E-03
			64.00		494.86E-03
			64.50		494.82E-03
			65.00		494.78E-03
			65.50		494.66E-03
			66.00		494.53E-03
			66.50		494.33E-03
			67.00		494.14E-03
			67.50		493.96E-03
			68.00		493.78E-03
			68.50		493.66E-03
			69.00		493.54E-03
			69.50		493.45E-03
			70.00		493.36E-03
			70.50		493.27E-03
			71.00		493.19E-03
			71.50		493.08E-03
			72.00		492.96E-03
			72.50		492.83E-03
			73.00		492.70E-03
			73.50		492.64E-03
			74.00		492.58E-03
			74.50		492.59E-03
			75.00		492.59E-03
			75.50		492.67E-03
			76.00		492.75E-03
			76.50		492.81E-03
			77.00		492.88E-03
			77.50		492.86E-03
			78.00		492.84E-03
			78.50		492.70E-03
			79.00		492.56E-03
			79.50		492.34E-03
			80.00		492.11E-03
			80.50		491.91E-03
			81.00		491.71E-03
			81.50		491.56E-03
			82.00		491.42E-03
			82.50		491.27E-03
			83.00		491.12E-03
			83.50		490.94E-03
			84.00		490.75E-03
			84.50		490.58E-03
			85.00		490.40E-03
			85.50		490.30E-03
			86.00		490.20E-03
			86.50		490.14E-03
			87.00		490.07E-03
			87.50		489.95E-03
			88.00		489.83E-03
			88.50		489.68E-03
			89.00		489.54E-03
			89.50		489.42E-03
			90.00		489.30E-03
			90.50		489.21E-03
			91.00		489.11E-03
			91.50		489.01E-03
			92.00		488.92E-03
			92.50		488.77E-03
			93.00		488.62E-03
			93.50		488.39E-03
			94.00		488.16E-03
			94.50		487.95E-03
			95.00		487.74E-03
			95.50		487.60E-03
			96.00		487.46E-03
			96.50		487.37E-03
			97.00		487.28E-03
			97.50		487.19E-03
			98.00		487.10E-03
			98.50		486.98E-03
			99.00		486.86E-03
			99.50		486.73E-03
			100.00		486.60E-03
			100.50		486.49E-03
			101.00		486.38E-03
			101.50		486.25E-03
			102.00		486.11E-03
			102.50		485.97E-03
			103.00		485.82E-03
			103.50		485.65E-03
			104.00		485.48E-03
			104.50		485.29E-03
			105.00		485.10E-03
			105.50		484.91E-03
			106.00		484.71E-03
			106.50		484.52E-03
			107.00		484.32E-03
			107.50		484.11E-03
			108.00		483.90E-03
			108.50		483.67E-03
			109.00		483.44E-03
			109.50		483.20E-03
			110.00		482.96E-03
			110.50		482.74E-03
			111.00		482.53E-03
			111.50		482.34E-03
			112.00		482.14E-03
			112.50		481.97E-03
			113.00		481.79E-03
			113.50		481.63E-03
			114.00		481.46E-03
			114.50		481.31E-03
			115.00		481.16E-03
			115.50		481.01E-03
			116.00		480.86E-03
			116.50		480.66E-03
			117.00		480.47E-03
			117.50		480.23E-03
			118.00		480.00E-03
			118.50		479.82E-03
			119.00		479.65E-03
			119.50		479.52E-03
			120.00		479.40E-03
			120.50		479.28E-03
			121.00		479.16E-03
			121.50		478.97E-03
			122.00		478.79E-03
			122.50		478.52E-03
			123.00		478.26E-03
			123.50		477.98E-03
			124.00		477.70E-03
			124.50		477.42E-03
			125.00		477.14E-03
			125.50		476.91E-03
			126.00		476.68E-03
			126.50		476.54E-03
			127.00		476.39E-03
			127.50		476.24E-03
			128.00		476.10E-03
			128.50		475.92E-03
			129.00		475.73E-03
			129.50		475.45E-03
			130.00		475.18E-03
			130.50		474.83E-03
			131.00		474.49E-03
			131.50		474.17E-03
			132.00		473.85E-03
			132.50		473.59E-03
			133.00		473.33E-03
			133.50		473.18E-03
			134.00		473.03E-03
			134.50		472.92E-03
			135.00		472.81E-03
			135.50		472.67E-03
			136.00		472.54E-03
			136.50		472.35E-03
			137.00		472.16E-03
			137.50		471.93E-03
			138.00		471.69E-03
			138.50		471.44E-03
			139.00		471.18E-03
			139.50		470.88E-03
			140.00		470.58E-03
			140.50		470.23E-03
			141.00		469.89E-03
			141.50		469.56E-03
			142.00		469.23E-03
			142.50		468.96E-03
			143.00		468.69E-03
			143.50		468.42E-03
			144.00		468.14E-03
			144.50		467.77E-03
			145.00		467.40E-03
			145.50		466.98E-03
			146.00		466.57E-03
			146.50		466.22E-03
			147.00		465.87E-03
			147.50		465.66E-03
			148.00		465.45E-03
			148.50		465.31E-03
			149.00		465.17E-03
			149.50		464.99E-03
			150.00		464.81E-03
			150.50		464.53E-03
			151.00		464.24E-03
			151.50		463.91E-03
			152.00		463.57E-03
			152.50		463.21E-03
			153.00		462.86E-03
			153.50		462.55E-03
			154.00		462.25E-03
			154.50		462.00E-03
			155.00		461.75E-03
			155.50		461.45E-03
			156.00		461.16E-03
			156.50		460.76E-03
			157.00		460.36E-03
			157.50		459.90E-03
			158.00		459.45E-03
			158.50		458.99E-03
			159.00		458.54E-03
			159.50		458.15E-03
			160.00		457.77E-03
			160.50		457.45E-03
			161.00		457.13E-03
			161.50		456.87E-03
			162.00		456.60E-03
			162.50		456.33E-03
			163.00		456.06E-03
			163.50		455.74E-03
			164.00		455.42E-03
			164.50		455.05E-03
			165.00		454.69E-03
			165.50		454.31E-03
			166.00		453.93E-03
			166.50		453.49E-03
			167.00		453.04E-03
			167.50		452.57E-03
			168.00		452.10E-03
			168.50		451.65E-03
			169.00		451.19E-03
			169.50		450.77E-03
			170.00		450.34E-03
			170.50		449.92E-03
			171.00		449.50E-03
			171.50		449.07E-03
			172.00		448.65E-03
			172.50		448.26E-03
			173.00		447.87E-03
			173.50		447.47E-03
			174.00		447.07E-03
			174.50		446.62E-03
			175.00		446.18E-03
			175.50		445.69E-03
			176.00		445.21E-03
			176.50		444.70E-03
			177.00		444.19E-03
			177.50		443.70E-03
			178.00		443.20E-03
			178.50		442.71E-03
			179.00		442.23E-03
			179.50		441.77E-03
			180.00		441.31E-03
			180.50		440.85E-03
			181.00		440.39E-03
			181.50		439.88E-03
			182.00		439.36E-03
			182.50		438.80E-03
			183.00		438.23E-03
			183.50		437.70E-03
			184.00		437.17E-03
			184.50		436.66E-03
			185.00		436.16E-03
			185.50		435.67E-03
			186.00		435.17E-03
			186.50		434.63E-03
			187.00		434.09E-03
			187.50		433.48E-03
			188.00		432.87E-03
			188.50		432.21E-03
			189.00		431.54E-03
			189.50		430.89E-03
			190.00		430.24E-03
			190.50		429.64E-03
			191.00		429.04E-03
			191.50		428.44E-03
			192.00		427.84E-03
			192.50		427.26E-03
			193.00		426.67E-03
			193.50		426.10E-03
			194.00		425.52E-03
			194.50		424.92E-03
			195.00		424.32E-03
			195.50		423.71E-03
			196.00		423.10E-03
			196.50		422.50E-03
			197.00		421.89E-03
			197.50		421.23E-03
			198.00		420.57E-03
			198.50		419.85E-03
			199.00		419.14E-03
			199.50		418.35E-03
			200.00		417.57E-03
			200.50		416.77E-03
			201.00		415.98E-03
			201.50		415.24E-03
			202.00		414.50E-03
			202.50		413.76E-03
			203.00		413.02E-03
			203.50		412.26E-03
			204.00		411.50E-03
			204.50		410.69E-03
			205.00		409.87E-03
			205.50		408.98E-03
			206.00		408.09E-03
			206.50		407.07E-03
			207.00		406.04E-03
			207.50		404.88E-03
			208.00		403.72E-03
			208.50		402.48E-03
			209.00		401.24E-03
			209.50		399.94E-03
			210.00		398.64E-03
			210.50		397.26E-03
			211.00		395.88E-03
			211.50		394.12E-03
			212.00		392.37E-03
			212.50		390.37E-03
			213.00		388.36E-03
			213.50		385.33E-03
			214.00		382.30E-03
			214.50		378.02E-03
			215.00		373.74E-03
			215.50		367.73E-03
			216.00		361.73E-03
			216.50		352.43E-03
			217.00		343.14E-03
			217.50		330.51E-03
			218.00		317.87E-03
			218.50		302.82E-03
			219.00		287.77E-03
			219.50		270.77E-03
			220.00		253.77E-03
			220.50		236.86E-03
			221.00		219.95E-03
			221.50		204.74E-03
			222.00		189.53E-03
			222.50		176.46E-03
			223.00		163.39E-03
			223.50		153.38E-03
			224.00		143.37E-03
			224.50		136.64E-03
			225.00		129.90E-03
			225.50		125.39E-03
			226.00		120.87E-03
			226.50		117.93E-03
			227.00		114.98E-03
			227.50		112.74E-03
			228.00		110.50E-03
			228.50		108.66E-03
			229.00		106.81E-03
			229.50		105.28E-03
			230.00		103.74E-03
			230.50		102.42E-03
			231.00		101.11E-03
			231.50		99.963E-03
			232.00		98.815E-03
			232.50		97.738E-03
			233.00		96.661E-03
			233.50		95.613E-03
			234.00		94.565E-03
			234.50		93.597E-03
			235.00		92.629E-03
			235.50		91.813E-03
			236.00		90.997E-03
			236.50		90.151E-03
			237.00		89.304E-03
			237.50		88.436E-03
			238.00		87.569E-03
			238.50		86.797E-03
			239.00		86.026E-03
			239.50		85.239E-03
			240.00		84.453E-03
			240.50		83.647E-03
			241.00		82.840E-03
			241.50		82.124E-03
			242.00		81.407E-03
			242.50		80.733E-03
			243.00		80.058E-03
			243.50		79.438E-03
			244.00		78.817E-03
			244.50		78.082E-03
			245.00		77.346E-03
			245.50		76.590E-03
			246.00		75.834E-03
			246.50		75.199E-03
			247.00		74.564E-03
			247.50		74.012E-03
			248.00		73.460E-03
			248.50		72.787E-03
			249.00		72.114E-03
			249.50		71.598E-03
			250.00		71.081E-03
			250.50		70.519E-03
			251.00		69.957E-03
			251.50		69.280E-03
			252.00		68.602E-03
			252.50		67.961E-03
			253.00		67.319E-03
			253.50		66.804E-03
			254.00		66.290E-03
			254.50		65.727E-03
			255.00		65.164E-03
			255.50		64.728E-03
			256.00		64.292E-03
			256.50		63.792E-03
			257.00		63.292E-03
			257.50		62.792E-03
			258.00		62.293E-03
			258.50		62.058E-03
			259.00		61.822E-03
		END_DATA
	END_SCAN  4
	BEGIN_SCAN  5
		TASK_NAME=tba PDD Profiles
		PROGRAM=WaterTankScans
		COMMENT=5x X
		MEAS_DATE=08-Feb-2021 10:39:29
		LINAC=TRUEBEAMSN4791
		MODALITY=X
		ISOCENTER=1000.00
		INPLANE_AXIS=Y
		CROSSPLANE_AXIS=X
		DEPTH_AXIS=Depth
		INPLANE_AXIS_DIR=TARGET_GUN
		CROSSPLANE_AXIS_DIR=LEFT_RIGHT
		DEPTH_AXIS_DIR=UP_DOWN
		ENERGY=6.00
		NOMINAL_DMAX=15.00
		SSD=900.00
		SCD=450.00
		WEDGE_ANGLE=0.00
		FIELD_INPLANE=400.00
		FIELD_CROSSPLANE=400.00
		FIELD_TYPE=RECTANGULAR
		GANTRY=0.00
		GANTRY_UPRIGHT_POSITION=0
		GANTRY_ROTATION=CW
		COLL_ANGLE=0.00
		COLL_OFFSET_INPLANE=0.00
		COLL_OFFSET_CROSSPLANE=0.00
		SCAN_DEVICE=BeamScan
		SCAN_DEVICE_SETUP=BARA_LEFT_RIGHT
		ELECTROMETER=BeamScan
		RANGE_FIELD=LOW
		RANGE_REFERENCE=MEDIUM
		DETECTOR=THIMBLE_CHAMBER
		DETECTOR_SUBCODE=SEMIFLEX
		DETECTOR_RADIUS=2.40
		DETECTOR_NAME=PTW 31021 Semiflex 3D (1)
		DETECTOR_SN=142316
		DETECTOR_CALIBRATION=588000000.00
		DETECTOR_IS_CALIBRATED=1
		DETECTOR_REFERENCE=THIMBLE_CHAMBER
		DETECTOR_REFERENCE_SUBCODE=SEMIFLEX
		DETECTOR_REFERENCE_RADIUS=2.75
		DETECTOR_REFERENCE_NAME=PTW 31010 Semiflex (1)
		DETECTOR_REFERENCE_SN=ÃƒÆ’Ã‚Â¢ÃƒÂ¢Ã¢â‚¬Å¡Ã‚Â¬ÃƒÂ¢Ã¢â€šÂ¬
		DETECTOR_REFERENCE_IS_CALIBRATED=0
		DETECTOR_REFERENCE_CALIBRATION=303000000.00
		DETECTOR_HV=400.0
		DETECTOR_REFERENCE_HV=400.0
		DETECTOR_ORIENTATION=HORIZONTAL
		FILTER=FF
		SCAN_SPEED_PROFILE=10.00
		SCAN_PROF_SPEED_DEP=DEPTH
		SCAN_SPEED_PDD=0.00
		SCAN_PDD_SPEED_DEP=ENERGY
		DETECTOR_TYPE=T31021
		REF_FIELD_DEPTH=300.00
		REF_FIELD_DEFINED=ISOCENTER
		REF_FIELD_INPLANE=100.00
		REF_FIELD_CROSSPLANE=100.00
		REF_SCAN_POSITIONS=-85.00;-84.00;-83.00;-82.00;-81.00;-80.00;-79.00;-78.00;-77.00;-76.00;-75.00;-74.00;-73.00;-72.00;-71.00;-70.00;-69.00;-68.00;-67.00;-66.00;-65.00;-64.00;-63.00;-62.00;-61.00;-60.00;-59.00;-58.00;-57.00;-56.00;-55.00;-54.00;-53.00;-52.00;-51.00;-50.00;-49.00;-48.00;-47.00;-46.00;-45.00;-44.00;-43.00;-42.00;-41.00;-40.00;-39.00;-38.00;-37.00;-36.00;-35.00;-34.00;-33.00;-32.00;-31.00;-30.00;-29.00;-28.00;-27.00;-26.00;-25.00;-24.00;-23.00;-22.00;-21.00;-20.00;-19.00;-18.00;-17.00;-16.00;-15.00;-14.00;-13.00;-12.00;-11.00;-10.00;-9.00;-8.00;-7.00;-6.00;-5.00;-4.00;-3.00;-2.00;-1.00;0.00;1.00;2.00;3.00;4.00;5.00;6.00;7.00;8.00;9.00;10.00;11.00;12.00;13.00;14.00;15.00;16.00;17.00;18.00;19.00;20.00;21.00;22.00;23.00;24.00;25.00;26.00;27.00;28.00;29.00;30.00;31.00;32.00;33.00;34.00;35.00;36.00;37.00;38.00;39.00;40.00;41.00;42.00;43.00;44.00;45.00;46.00;47.00;48.00;49.00;50.00;51.00;52.00;53.00;54.00;55.00;56.00;57.00;58.00;59.00;60.00;61.00;62.00;63.00;64.00;65.00;66.00;67.00;68.00;69.00;70.00;71.00;72.00;73.00;74.00;75.00;76.00;77.00;78.00;79.00;80.00;81.00;82.00;83.00;84.00;85.00;
		REF_OVERSCAN_FACTOR=1.00
		SCAN_CURVETYPE=CROSSPLANE_PROFILE
		SCAN_DEPTH=300.00
		SCAN_OFFAXIS_INPLANE=0.00
		SCAN_OFFAXIS_CROSSPLANE=0.00
		SCAN_ANGLE=0.00
		SCAN_DIAGONAL=NOT_DIAGONAL
		SCAN_DIRECTION=POSITIVE
		MEAS_MEDIUM=WATER
		MEAS_PRESET=MEAS_CONTINUOUS_REFERENCE_SCAN
		MEAS_TIME=0.100
		MEAS_UNIT=A.U.
		INCLINATION_ANGLE=0.00
		PRESSURE=1013.25
		TEMPERATURE=20.00
		NORM_TEMPERATURE=20.00
		CORRECTION_FACTOR=1.0000
		EXPECTED_MAX_DOSE_RATE=3.00
		EPOM_DEPTH_SHIFT=0.2
		EPOM_MODE=SHIFT_PROTOCOL
		CORRECTIONS=SMOOTHED_CORR;CAX_CORR;SYMMETRY_CORR;INTERPOLATED_CORR;MODIFIED_CORR;
		BEGIN_DATA
			-281.00		42.159E-03
			-280.50		42.592E-03
			-280.00		43.025E-03
			-279.50		43.314E-03
			-279.00		43.603E-03
			-278.50		43.891E-03
			-278.00		44.180E-03
			-277.50		44.324E-03
			-277.00		44.469E-03
			-276.50		44.902E-03
			-276.00		45.335E-03
			-275.50		45.624E-03
			-275.00		45.913E-03
			-274.50		46.201E-03
			-274.00		46.490E-03
			-273.50		46.779E-03
			-273.00		47.068E-03
			-272.50		47.501E-03
			-272.00		47.934E-03
			-271.50		48.223E-03
			-271.00		48.512E-03
			-270.50		48.945E-03
			-270.00		49.378E-03
			-269.50		49.667E-03
			-269.00		49.955E-03
			-268.50		50.244E-03
			-268.00		50.533E-03
			-267.50		50.822E-03
			-267.00		51.111E-03
			-266.50		51.544E-03
			-266.00		51.977E-03
			-265.50		52.410E-03
			-265.00		52.843E-03
			-264.50		53.132E-03
			-264.00		53.421E-03
			-263.50		53.854E-03
			-263.00		54.287E-03
			-262.50		54.720E-03
			-262.00		55.153E-03
			-261.50		55.442E-03
			-261.00		55.731E-03
			-260.50		56.164E-03
			-260.00		56.597E-03
			-259.50		57.030E-03
			-259.00		57.463E-03
			-258.50		58.040E-03
			-258.00		58.618E-03
			-257.50		59.051E-03
			-257.00		59.485E-03
			-256.50		59.773E-03
			-256.00		60.062E-03
			-255.50		60.640E-03
			-255.00		61.217E-03
			-254.50		61.650E-03
			-254.00		62.083E-03
			-253.50		62.661E-03
			-253.00		63.238E-03
			-252.50		63.816E-03
			-252.00		64.393E-03
			-251.50		65.115E-03
			-251.00		65.837E-03
			-250.50		66.559E-03
			-250.00		67.281E-03
			-249.50		68.003E-03
			-249.00		68.725E-03
			-248.50		69.735E-03
			-248.00		70.746E-03
			-247.50		71.901E-03
			-247.00		73.056E-03
			-246.50		74.644E-03
			-246.00		76.233E-03
			-245.50		78.543E-03
			-245.00		80.853E-03
			-244.50		84.174E-03
			-244.00		87.494E-03
			-243.50		92.258E-03
			-243.00		97.023E-03
			-242.50		103.38E-03
			-242.00		109.73E-03
			-241.50		117.09E-03
			-241.00		124.46E-03
			-240.50		132.69E-03
			-240.00		140.91E-03
			-239.50		149.28E-03
			-239.00		157.66E-03
			-238.50		165.02E-03
			-238.00		172.39E-03
			-237.50		178.88E-03
			-237.00		185.38E-03
			-236.50		190.00E-03
			-236.00		194.62E-03
			-235.50		197.80E-03
			-235.00		200.98E-03
			-234.50		203.14E-03
			-234.00		205.31E-03
			-233.50		207.19E-03
			-233.00		209.06E-03
			-232.50		210.36E-03
			-232.00		211.66E-03
			-231.50		212.67E-03
			-231.00		213.68E-03
			-230.50		214.41E-03
			-230.00		215.13E-03
			-229.50		215.99E-03
			-229.00		216.86E-03
			-228.50		217.58E-03
			-228.00		218.30E-03
			-227.50		219.03E-03
			-227.00		219.75E-03
			-226.50		220.32E-03
			-226.00		220.90E-03
			-225.50		221.48E-03
			-225.00		222.06E-03
			-224.50		222.49E-03
			-224.00		222.92E-03
			-223.50		223.50E-03
			-223.00		224.08E-03
			-222.50		224.51E-03
			-222.00		224.94E-03
			-221.50		225.37E-03
			-221.00		225.81E-03
			-220.50		226.25E-03
			-220.00		226.68E-03
			-219.50		227.11E-03
			-219.00		227.54E-03
			-218.50		227.98E-03
			-218.00		228.41E-03
			-217.50		228.85E-03
			-217.00		229.28E-03
			-216.50		229.71E-03
			-216.00		230.14E-03
			-215.50		230.43E-03
			-215.00		230.72E-03
			-214.50		231.01E-03
			-214.00		231.30E-03
			-213.50		231.73E-03
			-213.00		232.16E-03
			-212.50		232.59E-03
			-212.00		233.03E-03
			-211.50		233.47E-03
			-211.00		233.90E-03
			-210.50		234.33E-03
			-210.00		234.76E-03
			-209.50		235.20E-03
			-209.00		235.63E-03
			-208.50		235.92E-03
			-208.00		236.21E-03
			-207.50		236.50E-03
			-207.00		236.78E-03
			-206.50		237.22E-03
			-206.00		237.65E-03
			-205.50		237.94E-03
			-205.00		238.23E-03
			-204.50		238.52E-03
			-204.00		238.80E-03
			-203.50		239.09E-03
			-203.00		239.38E-03
			-202.50		239.67E-03
			-202.00		239.96E-03
			-201.50		240.25E-03
			-201.00		240.54E-03
			-200.50		240.97E-03
			-200.00		241.40E-03
			-199.50		241.83E-03
			-199.00		242.27E-03
			-198.50		242.70E-03
			-198.00		243.14E-03
			-197.50		243.42E-03
			-197.00		243.71E-03
			-196.50		244.00E-03
			-196.00		244.29E-03
			-195.50		244.58E-03
			-195.00		244.87E-03
			-194.50		245.16E-03
			-194.00		245.45E-03
			-193.50		245.88E-03
			-193.00		246.31E-03
			-192.50		246.60E-03
			-192.00		246.89E-03
			-191.50		247.18E-03
			-191.00		247.47E-03
			-190.50		247.76E-03
			-190.00		248.04E-03
			-189.50		248.48E-03
			-189.00		248.91E-03
			-188.50		249.20E-03
			-188.00		249.49E-03
			-187.50		249.63E-03
			-187.00		249.78E-03
			-186.50		250.06E-03
			-186.00		250.35E-03
			-185.50		250.64E-03
			-185.00		250.93E-03
			-184.50		251.22E-03
			-184.00		251.51E-03
			-183.50		251.80E-03
			-183.00		252.09E-03
			-182.50		252.23E-03
			-182.00		252.38E-03
			-181.50		252.67E-03
			-181.00		252.95E-03
			-180.50		253.24E-03
			-180.00		253.53E-03
			-179.50		253.67E-03
			-179.00		253.82E-03
			-178.50		253.97E-03
			-178.00		254.11E-03
			-177.50		254.25E-03
			-177.00		254.40E-03
			-176.50		254.69E-03
			-176.00		254.98E-03
			-175.50		255.26E-03
			-175.00		255.55E-03
			-174.50		255.84E-03
			-174.00		256.13E-03
			-173.50		256.42E-03
			-173.00		256.71E-03
			-172.50		257.00E-03
			-172.00		257.29E-03
			-171.50		257.58E-03
			-171.00		257.86E-03
			-170.50		258.15E-03
			-170.00		258.44E-03
			-169.50		258.58E-03
			-169.00		258.73E-03
			-168.50		258.88E-03
			-168.00		259.02E-03
			-167.50		259.16E-03
			-167.00		259.31E-03
			-166.50		259.60E-03
			-166.00		259.88E-03
			-165.50		260.17E-03
			-165.00		260.46E-03
			-164.50		260.75E-03
			-164.00		261.04E-03
			-163.50		261.33E-03
			-163.00		261.62E-03
			-162.50		261.91E-03
			-162.00		262.19E-03
			-161.50		262.34E-03
			-161.00		262.48E-03
			-160.50		262.62E-03
			-160.00		262.77E-03
			-159.50		262.92E-03
			-159.00		263.06E-03
			-158.50		263.20E-03
			-158.00		263.35E-03
			-157.50		263.49E-03
			-157.00		263.64E-03
			-156.50		263.93E-03
			-156.00		264.22E-03
			-155.50		264.36E-03
			-155.00		264.50E-03
			-154.50		264.79E-03
			-154.00		265.08E-03
			-153.50		265.22E-03
			-153.00		265.37E-03
			-152.50		265.51E-03
			-152.00		265.66E-03
			-151.50		265.95E-03
			-151.00		266.24E-03
			-150.50		266.39E-03
			-150.00		266.53E-03
			-149.50		266.67E-03
			-149.00		266.81E-03
			-148.50		267.10E-03
			-148.00		267.39E-03
			-147.50		267.54E-03
			-147.00		267.68E-03
			-146.50		267.83E-03
			-146.00		267.97E-03
			-145.50		268.11E-03
			-145.00		268.26E-03
			-144.50		268.55E-03
			-144.00		268.84E-03
			-143.50		268.98E-03
			-143.00		269.12E-03
			-142.50		269.26E-03
			-142.00		269.41E-03
			-141.50		269.56E-03
			-141.00		269.70E-03
			-140.50		269.85E-03
			-140.00		269.99E-03
			-139.50		270.28E-03
			-139.00		270.57E-03
			-138.50		270.71E-03
			-138.00		270.86E-03
			-137.50		271.00E-03
			-137.00		271.15E-03
			-136.50		271.29E-03
			-136.00		271.43E-03
			-135.50		271.72E-03
			-135.00		272.01E-03
			-134.50		272.15E-03
			-134.00		272.30E-03
			-133.50		272.59E-03
			-133.00		272.88E-03
			-132.50		273.02E-03
			-132.00		273.17E-03
			-131.50		273.17E-03
			-131.00		273.17E-03
			-130.50		273.17E-03
			-130.00		273.17E-03
			-129.50		273.32E-03
			-129.00		273.46E-03
			-128.50		273.75E-03
			-128.00		274.03E-03
			-127.50		274.17E-03
			-127.00		274.32E-03
			-126.50		274.47E-03
			-126.00		274.61E-03
			-125.50		274.76E-03
			-125.00		274.90E-03
			-124.50		274.90E-03
			-124.00		274.90E-03
			-123.50		275.04E-03
			-123.00		275.19E-03
			-122.50		275.34E-03
			-122.00		275.48E-03
			-121.50		275.62E-03
			-121.00		275.77E-03
			-120.50		275.91E-03
			-120.00		276.05E-03
			-119.50		276.34E-03
			-119.00		276.63E-03
			-118.50		276.78E-03
			-118.00		276.92E-03
			-117.50		277.06E-03
			-117.00		277.21E-03
			-116.50		277.36E-03
			-116.00		277.50E-03
			-115.50		277.64E-03
			-115.00		277.79E-03
			-114.50		277.79E-03
			-114.00		277.79E-03
			-113.50		278.08E-03
			-113.00		278.36E-03
			-112.50		278.50E-03
			-112.00		278.65E-03
			-111.50		278.65E-03
			-111.00		278.65E-03
			-110.50		278.80E-03
			-110.00		278.94E-03
			-109.50		278.94E-03
			-109.00		278.94E-03
			-108.50		279.08E-03
			-108.00		279.23E-03
			-107.50		279.38E-03
			-107.00		279.52E-03
			-106.50		279.66E-03
			-106.00		279.81E-03
			-105.50		279.81E-03
			-105.00		279.81E-03
			-104.50		279.95E-03
			-104.00		280.10E-03
			-103.50		280.25E-03
			-103.00		280.39E-03
			-102.50		280.53E-03
			-102.00		280.67E-03
			-101.50		280.82E-03
			-101.00		280.96E-03
			-100.50		281.25E-03
			-100.00		281.54E-03
			-99.50		281.68E-03
			-99.00		281.83E-03
			-98.50		281.98E-03
			-98.00		282.12E-03
			-97.50		282.27E-03
			-97.00		282.41E-03
			-96.50		282.41E-03
			-96.00		282.41E-03
			-95.50		282.55E-03
			-95.00		282.70E-03
			-94.50		282.70E-03
			-94.00		282.70E-03
			-93.50		282.70E-03
			-93.00		282.70E-03
			-92.50		282.84E-03
			-92.00		282.98E-03
			-91.50		282.98E-03
			-91.00		282.98E-03
			-90.50		283.12E-03
			-90.00		283.27E-03
			-89.50		283.42E-03
			-89.00		283.56E-03
			-88.50		283.70E-03
			-88.00		283.85E-03
			-87.50		284.00E-03
			-87.00		284.14E-03
			-86.50		284.14E-03
			-86.00		284.14E-03
			-85.50		284.29E-03
			-85.00		284.43E-03
			-84.50		284.43E-03
			-84.00		284.43E-03
			-83.50		284.57E-03
			-83.00		284.72E-03
			-82.50		284.72E-03
			-82.00		284.72E-03
			-81.50		284.87E-03
			-81.00		285.01E-03
			-80.50		285.15E-03
			-80.00		285.29E-03
			-79.50		285.29E-03
			-79.00		285.29E-03
			-78.50		285.44E-03
			-78.00		285.58E-03
			-77.50		285.58E-03
			-77.00		285.58E-03
			-76.50		285.72E-03
			-76.00		285.87E-03
			-75.50		286.01E-03
			-75.00		286.16E-03
			-74.50		286.16E-03
			-74.00		286.16E-03
			-73.50		286.16E-03
			-73.00		286.16E-03
			-72.50		286.31E-03
			-72.00		286.45E-03
			-71.50		286.59E-03
			-71.00		286.74E-03
			-70.50		286.89E-03
			-70.00		287.03E-03
			-69.50		287.03E-03
			-69.00		287.03E-03
			-68.50		287.03E-03
			-68.00		287.03E-03
			-67.50		287.03E-03
			-67.00		287.03E-03
			-66.50		287.17E-03
			-66.00		287.32E-03
			-65.50		287.46E-03
			-65.00		287.60E-03
			-64.50		287.60E-03
			-64.00		287.60E-03
			-63.50		287.60E-03
			-63.00		287.60E-03
			-62.50		287.60E-03
			-62.00		287.60E-03
			-61.50		287.60E-03
			-61.00		287.60E-03
			-60.50		287.74E-03
			-60.00		287.89E-03
			-59.50		288.03E-03
			-59.00		288.18E-03
			-58.50		288.33E-03
			-58.00		288.47E-03
			-57.50		288.47E-03
			-57.00		288.47E-03
			-56.50		288.47E-03
			-56.00		288.47E-03
			-55.50		288.47E-03
			-55.00		288.47E-03
			-54.50		288.47E-03
			-54.00		288.47E-03
			-53.50		288.61E-03
			-53.00		288.76E-03
			-52.50		288.76E-03
			-52.00		288.76E-03
			-51.50		288.76E-03
			-51.00		288.76E-03
			-50.50		288.76E-03
			-50.00		288.76E-03
			-49.50		288.76E-03
			-49.00		288.76E-03
			-48.50		288.76E-03
			-48.00		288.76E-03
			-47.50		288.76E-03
			-47.00		288.76E-03
			-46.50		288.76E-03
			-46.00		288.76E-03
			-45.50		288.76E-03
			-45.00		288.76E-03
			-44.50		288.76E-03
			-44.00		288.76E-03
			-43.50		288.91E-03
			-43.00		289.05E-03
			-42.50		289.05E-03
			-42.00		289.05E-03
			-41.50		289.05E-03
			-41.00		289.05E-03
			-40.50		289.05E-03
			-40.00		289.05E-03
			-39.50		289.05E-03
			-39.00		289.05E-03
			-38.50		288.91E-03
			-38.00		288.76E-03
			-37.50		288.76E-03
			-37.00		288.76E-03
			-36.50		288.91E-03
			-36.00		289.05E-03
			-35.50		289.05E-03
			-35.00		289.05E-03
			-34.50		289.20E-03
			-34.00		289.34E-03
			-33.50		289.34E-03
			-33.00		289.34E-03
			-32.50		289.48E-03
			-32.00		289.63E-03
			-31.50		289.63E-03
			-31.00		289.63E-03
			-30.50		289.63E-03
			-30.00		289.63E-03
			-29.50		289.63E-03
			-29.00		289.63E-03
			-28.50		289.63E-03
			-28.00		289.63E-03
			-27.50		289.48E-03
			-27.00		289.34E-03
			-26.50		289.34E-03
			-26.00		289.34E-03
			-25.50		289.34E-03
			-25.00		289.34E-03
			-24.50		289.34E-03
			-24.00		289.34E-03
			-23.50		289.48E-03
			-23.00		289.63E-03
			-22.50		289.63E-03
			-22.00		289.63E-03
			-21.50		289.63E-03
			-21.00		289.63E-03
			-20.50		289.78E-03
			-20.00		289.92E-03
			-19.50		289.92E-03
			-19.00		289.92E-03
			-18.50		289.92E-03
			-18.00		289.92E-03
			-17.50		290.06E-03
			-17.00		290.20E-03
			-16.50		290.06E-03
			-16.00		289.92E-03
			-15.50		289.92E-03
			-15.00		289.92E-03
			-14.50		289.78E-03
			-14.00		289.63E-03
			-13.50		289.48E-03
			-13.00		289.34E-03
			-12.50		289.34E-03
			-12.00		289.34E-03
			-11.50		289.34E-03
			-11.00		289.34E-03
			-10.50		289.34E-03
			-10.00		289.34E-03
			-9.50		289.20E-03
			-9.00		289.05E-03
			-8.50		289.05E-03
			-8.00		289.05E-03
			-7.50		288.91E-03
			-7.00		288.76E-03
			-6.50		288.76E-03
			-6.00		288.76E-03
			-5.50		288.91E-03
			-5.00		289.05E-03
			-4.50		289.05E-03
			-4.00		289.05E-03
			-3.50		289.05E-03
			-3.00		289.05E-03
			-2.50		289.05E-03
			-2.00		289.05E-03
			-1.50		288.91E-03
			-1.00		288.76E-03
			-0.50		288.76E-03
			0.00		288.76E-03
			0.50		288.76E-03
			1.00		288.76E-03
			1.50		288.91E-03
			2.00		289.05E-03
			2.50		289.05E-03
			3.00		289.05E-03
			3.50		289.05E-03
			4.00		289.05E-03
			4.50		289.05E-03
			5.00		289.05E-03
			5.50		288.91E-03
			6.00		288.76E-03
			6.50		288.76E-03
			7.00		288.76E-03
			7.50		288.91E-03
			8.00		289.05E-03
			8.50		289.05E-03
			9.00		289.05E-03
			9.50		289.20E-03
			10.00		289.34E-03
			10.50		289.34E-03
			11.00		289.34E-03
			11.50		289.34E-03
			12.00		289.34E-03
			12.50		289.34E-03
			13.00		289.34E-03
			13.50		289.48E-03
			14.00		289.63E-03
			14.50		289.78E-03
			15.00		289.92E-03
			15.50		289.92E-03
			16.00		289.92E-03
			16.50		290.06E-03
			17.00		290.20E-03
			17.50		290.06E-03
			18.00		289.92E-03
			18.50		289.92E-03
			19.00		289.92E-03
			19.50		289.92E-03
			20.00		289.92E-03
			20.50		289.78E-03
			21.00		289.63E-03
			21.50		289.63E-03
			22.00		289.63E-03
			22.50		289.63E-03
			23.00		289.63E-03
			23.50		289.48E-03
			24.00		289.34E-03
			24.50		289.34E-03
			25.00		289.34E-03
			25.50		289.34E-03
			26.00		289.34E-03
			26.50		289.34E-03
			27.00		289.34E-03
			27.50		289.48E-03
			28.00		289.63E-03
			28.50		289.63E-03
			29.00		289.63E-03
			29.50		289.63E-03
			30.00		289.63E-03
			30.50		289.63E-03
			31.00		289.63E-03
			31.50		289.63E-03
			32.00		289.63E-03
			32.50		289.48E-03
			33.00		289.34E-03
			33.50		289.34E-03
			34.00		289.34E-03
			34.50		289.20E-03
			35.00		289.05E-03
			35.50		289.05E-03
			36.00		289.05E-03
			36.50		288.91E-03
			37.00		288.76E-03
			37.50		288.76E-03
			38.00		288.76E-03
			38.50		288.91E-03
			39.00		289.05E-03
			39.50		289.05E-03
			40.00		289.05E-03
			40.50		289.05E-03
			41.00		289.05E-03
			41.50		289.05E-03
			42.00		289.05E-03
			42.50		289.05E-03
			43.00		289.05E-03
			43.50		288.91E-03
			44.00		288.76E-03
			44.50		288.76E-03
			45.00		288.76E-03
			45.50		288.76E-03
			46.00		288.76E-03
			46.50		288.76E-03
			47.00		288.76E-03
			47.50		288.76E-03
			48.00		288.76E-03
			48.50		288.76E-03
			49.00		288.76E-03
			49.50		288.76E-03
			50.00		288.76E-03
			50.50		288.76E-03
			51.00		288.76E-03
			51.50		288.76E-03
			52.00		288.76E-03
			52.50		288.76E-03
			53.00		288.76E-03
			53.50		288.61E-03
			54.00		288.47E-03
			54.50		288.47E-03
			55.00		288.47E-03
			55.50		288.47E-03
			56.00		288.47E-03
			56.50		288.47E-03
			57.00		288.47E-03
			57.50		288.47E-03
			58.00		288.47E-03
			58.50		288.33E-03
			59.00		288.18E-03
			59.50		288.03E-03
			60.00		287.89E-03
			60.50		287.74E-03
			61.00		287.60E-03
			61.50		287.60E-03
			62.00		287.60E-03
			62.50		287.60E-03
			63.00		287.60E-03
			63.50		287.60E-03
			64.00		287.60E-03
			64.50		287.60E-03
			65.00		287.60E-03
			65.50		287.46E-03
			66.00		287.32E-03
			66.50		287.17E-03
			67.00		287.03E-03
			67.50		287.03E-03
			68.00		287.03E-03
			68.50		287.03E-03
			69.00		287.03E-03
			69.50		287.03E-03
			70.00		287.03E-03
			70.50		286.89E-03
			71.00		286.74E-03
			71.50		286.59E-03
			72.00		286.45E-03
			72.50		286.31E-03
			73.00		286.16E-03
			73.50		286.16E-03
			74.00		286.16E-03
			74.50		286.16E-03
			75.00		286.16E-03
			75.50		286.01E-03
			76.00		285.87E-03
			76.50		285.72E-03
			77.00		285.58E-03
			77.50		285.58E-03
			78.00		285.58E-03
			78.50		285.44E-03
			79.00		285.29E-03
			79.50		285.29E-03
			80.00		285.29E-03
			80.50		285.15E-03
			81.00		285.01E-03
			81.50		284.87E-03
			82.00		284.72E-03
			82.50		284.72E-03
			83.00		284.72E-03
			83.50		284.57E-03
			84.00		284.43E-03
			84.50		284.43E-03
			85.00		284.43E-03
			85.50		284.29E-03
			86.00		284.14E-03
			86.50		284.14E-03
			87.00		284.14E-03
			87.50		284.00E-03
			88.00		283.85E-03
			88.50		283.70E-03
			89.00		283.56E-03
			89.50		283.42E-03
			90.00		283.27E-03
			90.50		283.12E-03
			91.00		282.98E-03
			91.50		282.98E-03
			92.00		282.98E-03
			92.50		282.84E-03
			93.00		282.70E-03
			93.50		282.70E-03
			94.00		282.70E-03
			94.50		282.70E-03
			95.00		282.70E-03
			95.50		282.55E-03
			96.00		282.41E-03
			96.50		282.41E-03
			97.00		282.41E-03
			97.50		282.27E-03
			98.00		282.12E-03
			98.50		281.98E-03
			99.00		281.83E-03
			99.50		281.68E-03
			100.00		281.54E-03
			100.50		281.25E-03
			101.00		280.96E-03
			101.50		280.82E-03
			102.00		280.67E-03
			102.50		280.53E-03
			103.00		280.39E-03
			103.50		280.25E-03
			104.00		280.10E-03
			104.50		279.95E-03
			105.00		279.81E-03
			105.50		279.81E-03
			106.00		279.81E-03
			106.50		279.66E-03
			107.00		279.52E-03
			107.50		279.38E-03
			108.00		279.23E-03
			108.50		279.08E-03
			109.00		278.94E-03
			109.50		278.94E-03
			110.00		278.94E-03
			110.50		278.80E-03
			111.00		278.65E-03
			111.50		278.65E-03
			112.00		278.65E-03
			112.50		278.50E-03
			113.00		278.36E-03
			113.50		278.08E-03
			114.00		277.79E-03
			114.50		277.79E-03
			115.00		277.79E-03
			115.50		277.64E-03
			116.00		277.50E-03
			116.50		277.36E-03
			117.00		277.21E-03
			117.50		277.06E-03
			118.00		276.92E-03
			118.50		276.78E-03
			119.00		276.63E-03
			119.50		276.34E-03
			120.00		276.05E-03
			120.50		275.91E-03
			121.00		275.77E-03
			121.50		275.62E-03
			122.00		275.48E-03
			122.50		275.34E-03
			123.00		275.19E-03
			123.50		275.04E-03
			124.00		274.90E-03
			124.50		274.90E-03
			125.00		274.90E-03
			125.50		274.76E-03
			126.00		274.61E-03
			126.50		274.47E-03
			127.00		274.32E-03
			127.50		274.17E-03
			128.00		274.03E-03
			128.50		273.75E-03
			129.00		273.46E-03
			129.50		273.32E-03
			130.00		273.17E-03
			130.50		273.17E-03
			131.00		273.17E-03
			131.50		273.17E-03
			132.00		273.17E-03
			132.50		273.02E-03
			133.00		272.88E-03
			133.50		272.59E-03
			134.00		272.30E-03
			134.50		272.15E-03
			135.00		272.01E-03
			135.50		271.72E-03
			136.00		271.43E-03
			136.50		271.29E-03
			137.00		271.15E-03
			137.50		271.00E-03
			138.00		270.86E-03
			138.50		270.71E-03
			139.00		270.57E-03
			139.50		270.28E-03
			140.00		269.99E-03
			140.50		269.85E-03
			141.00		269.70E-03
			141.50		269.56E-03
			142.00		269.41E-03
			142.50		269.26E-03
			143.00		269.12E-03
			143.50		268.98E-03
			144.00		268.84E-03
			144.50		268.55E-03
			145.00		268.26E-03
			145.50		268.11E-03
			146.00		267.97E-03
			146.50		267.83E-03
			147.00		267.68E-03
			147.50		267.54E-03
			148.00		267.39E-03
			148.50		267.10E-03
			149.00		266.81E-03
			149.50		266.67E-03
			150.00		266.53E-03
			150.50		266.39E-03
			151.00		266.24E-03
			151.50		265.95E-03
			152.00		265.66E-03
			152.50		265.51E-03
			153.00		265.37E-03
			153.50		265.22E-03
			154.00		265.08E-03
			154.50		264.79E-03
			155.00		264.50E-03
			155.50		264.36E-03
			156.00		264.22E-03
			156.50		263.93E-03
			157.00		263.64E-03
			157.50		263.49E-03
			158.00		263.35E-03
			158.50		263.20E-03
			159.00		263.06E-03
			159.50		262.92E-03
			160.00		262.77E-03
			160.50		262.62E-03
			161.00		262.48E-03
			161.50		262.34E-03
			162.00		262.19E-03
			162.50		261.91E-03
			163.00		261.62E-03
			163.50		261.33E-03
			164.00		261.04E-03
			164.50		260.75E-03
			165.00		260.46E-03
			165.50		260.17E-03
			166.00		259.88E-03
			166.50		259.60E-03
			167.00		259.31E-03
			167.50		259.16E-03
			168.00		259.02E-03
			168.50		258.88E-03
			169.00		258.73E-03
			169.50		258.58E-03
			170.00		258.44E-03
			170.50		258.15E-03
			171.00		257.86E-03
			171.50		257.58E-03
			172.00		257.29E-03
			172.50		257.00E-03
			173.00		256.71E-03
			173.50		256.42E-03
			174.00		256.13E-03
			174.50		255.84E-03
			175.00		255.55E-03
			175.50		255.26E-03
			176.00		254.98E-03
			176.50		254.69E-03
			177.00		254.40E-03
			177.50		254.25E-03
			178.00		254.11E-03
			178.50		253.97E-03
			179.00		253.82E-03
			179.50		253.67E-03
			180.00		253.53E-03
			180.50		253.24E-03
			181.00		252.95E-03
			181.50		252.67E-03
			182.00		252.38E-03
			182.50		252.23E-03
			183.00		252.09E-03
			183.50		251.80E-03
			184.00		251.51E-03
			184.50		251.22E-03
			185.00		250.93E-03
			185.50		250.64E-03
			186.00		250.35E-03
			186.50		250.06E-03
			187.00		249.78E-03
			187.50		249.63E-03
			188.00		249.49E-03
			188.50		249.20E-03
			189.00		248.91E-03
			189.50		248.48E-03
			190.00		248.04E-03
			190.50		247.76E-03
			191.00		247.47E-03
			191.50		247.18E-03
			192.00		246.89E-03
			192.50		246.60E-03
			193.00		246.31E-03
			193.50		245.88E-03
			194.00		245.45E-03
			194.50		245.16E-03
			195.00		244.87E-03
			195.50		244.58E-03
			196.00		244.29E-03
			196.50		244.00E-03
			197.00		243.71E-03
			197.50		243.42E-03
			198.00		243.14E-03
			198.50		242.70E-03
			199.00		242.27E-03
			199.50		241.83E-03
			200.00		241.40E-03
			200.50		240.97E-03
			201.00		240.54E-03
			201.50		240.25E-03
			202.00		239.96E-03
			202.50		239.67E-03
			203.00		239.38E-03
			203.50		239.09E-03
			204.00		238.80E-03
			204.50		238.52E-03
			205.00		238.23E-03
			205.50		237.94E-03
			206.00		237.65E-03
			206.50		237.22E-03
			207.00		236.78E-03
			207.50		236.50E-03
			208.00		236.21E-03
			208.50		235.92E-03
			209.00		235.63E-03
			209.50		235.20E-03
			210.00		234.76E-03
			210.50		234.33E-03
			211.00		233.90E-03
			211.50		233.47E-03
			212.00		233.03E-03
			212.50		232.59E-03
			213.00		232.16E-03
			213.50		231.73E-03
			214.00		231.30E-03
			214.50		231.01E-03
			215.00		230.72E-03
			215.50		230.43E-03
			216.00		230.14E-03
			216.50		229.71E-03
			217.00		229.28E-03
			217.50		228.85E-03
			218.00		228.41E-03
			218.50		227.98E-03
			219.00		227.54E-03
			219.50		227.11E-03
			220.00		226.68E-03
			220.50		226.25E-03
			221.00		225.81E-03
			221.50		225.37E-03
			222.00		224.94E-03
			222.50		224.51E-03
			223.00		224.08E-03
			223.50		223.50E-03
			224.00		222.92E-03
			224.50		222.49E-03
			225.00		222.06E-03
			225.50		221.48E-03
			226.00		220.90E-03
			226.50		220.32E-03
			227.00		219.75E-03
			227.50		219.03E-03
			228.00		218.30E-03
			228.50		217.58E-03
			229.00		216.86E-03
			229.50		215.99E-03
			230.00		215.13E-03
			230.50		214.41E-03
			231.00		213.68E-03
			231.50		212.67E-03
			232.00		211.66E-03
			232.50		210.36E-03
			233.00		209.06E-03
			233.50		207.19E-03
			234.00		205.31E-03
			234.50		203.14E-03
			235.00		200.98E-03
			235.50		197.80E-03
			236.00		194.62E-03
			236.50		190.00E-03
			237.00		185.38E-03
			237.50		178.88E-03
			238.00		172.39E-03
			238.50		165.02E-03
			239.00		157.66E-03
			239.50		149.28E-03
			240.00		140.91E-03
			240.50		132.69E-03
			241.00		124.46E-03
			241.50		117.09E-03
			242.00		109.73E-03
			242.50		103.38E-03
			243.00		97.023E-03
			243.50		92.258E-03
			244.00		87.494E-03
			244.50		84.174E-03
			245.00		80.853E-03
			245.50		78.543E-03
			246.00		76.233E-03
			246.50		74.644E-03
			247.00		73.056E-03
			247.50		71.901E-03
			248.00		70.746E-03
			248.50		69.735E-03
			249.00		68.725E-03
			249.50		68.003E-03
			250.00		67.281E-03
			250.50		66.559E-03
			251.00		65.837E-03
			251.50		65.115E-03
			252.00		64.393E-03
			252.50		63.816E-03
			253.00		63.238E-03
			253.50		62.661E-03
			254.00		62.083E-03
			254.50		61.650E-03
			255.00		61.217E-03
			255.50		60.640E-03
			256.00		60.062E-03
			256.50		59.773E-03
			257.00		59.485E-03
			257.50		59.051E-03
			258.00		58.618E-03
			258.50		58.040E-03
			259.00		57.463E-03
			259.50		57.030E-03
			260.00		56.597E-03
			260.50		56.164E-03
			261.00		55.731E-03
			261.50		55.442E-03
			262.00		55.153E-03
			262.50		54.720E-03
			263.00		54.287E-03
			263.50		53.854E-03
			264.00		53.421E-03
			264.50		53.132E-03
			265.00		52.843E-03
			265.50		52.410E-03
			266.00		51.977E-03
			266.50		51.544E-03
			267.00		51.111E-03
			267.50		50.822E-03
			268.00		50.533E-03
			268.50		50.244E-03
			269.00		49.955E-03
			269.50		49.667E-03
			270.00		49.378E-03
			270.50		48.945E-03
			271.00		48.512E-03
			271.50		48.223E-03
			272.00		47.934E-03
			272.50		47.501E-03
			273.00		47.068E-03
			273.50		46.779E-03
			274.00		46.490E-03
			274.50		46.201E-03
			275.00		45.913E-03
			275.50		45.624E-03
			276.00		45.335E-03
			276.50		44.902E-03
			277.00		44.469E-03
			277.50		44.324E-03
			278.00		44.180E-03
			278.50		43.891E-03
			279.00		43.603E-03
			279.50		43.314E-03
			280.00		43.025E-03
			280.50		42.592E-03
			281.00		42.159E-03
		END_DATA
	END_SCAN  5
END_SCAN_DATA
