BEGIN_SCAN_DATA
	FORMAT=CC-Export V1.9                  
	FILE_CREATION_DATE=16-Apr-2022 16:58:48
	LAST_MODIFIED=16-Apr-2022 16:58:48
	BEGIN_SCAN  1
		TASK_NAME=tba PDD Profiles
		PROGRAM=WaterTankScans
		COMMENT=Average
		MEAS_DATE=15-Mar-2022 16:15:29
		LINAC=MRIdian
		MODALITY=X
		ISOCENTER=900.00
		INPLANE_AXIS=Y
		CROSSPLANE_AXIS=X
		DEPTH_AXIS=Depth
		INPLANE_AXIS_DIR=TARGET_GUN
		CROSSPLANE_AXIS_DIR=LEFT_RIGHT
		DEPTH_AXIS_DIR=UP_DOWN
		ENERGY=6.00
		NOMINAL_DMAX=15.00
		SSD=850.00
		SCD=450.00
		WEDGE_ANGLE=0.00
		FIELD_INPLANE=100.00
		FIELD_CROSSPLANE=100.00
		FIELD_TYPE=RECTANGULAR
		GANTRY=0.00
		GANTRY_UPRIGHT_POSITION=0
		GANTRY_ROTATION=CW
		COLL_ANGLE=0.00
		COLL_OFFSET_INPLANE=0.00
		COLL_OFFSET_CROSSPLANE=0.00
		SCAN_DEVICE=BeamScan
		SCAN_DEVICE_SETUP=BARA_LEFT_RIGHT
		ELECTROMETER=BeamScan
		RANGE_FIELD=LOW
		RANGE_REFERENCE=MEDIUM
		DETECTOR=THIMBLE_CHAMBER
		DETECTOR_RADIUS=2.40
		DETECTOR_NAME=A28MR
		DETECTOR_SN=-
		DETECTOR_CALIBRATION=588000000.00
		DETECTOR_IS_CALIBRATED=0
		DETECTOR_REFERENCE=THIMBLE_CHAMBER
		DETECTOR_REFERENCE_RADIUS=2.75
		DETECTOR_REFERENCE_NAME=A28MR
		DETECTOR_REFERENCE_SN=â€”
		DETECTOR_REFERENCE_IS_CALIBRATED=0
		DETECTOR_REFERENCE_CALIBRATION=303000000.00
		DETECTOR_HV=300.0
		DETECTOR_REFERENCE_HV=300.0
		DETECTOR_ORIENTATION=HORIZONTAL
		FILTER=FFF
		SCAN_SPEED_PROFILE=10.00
		SCAN_PROF_SPEED_DEP=DEPTH
		SCAN_SPEED_PDD=0.00
		SCAN_PDD_SPEED_DEP=ENERGY
		DETECTOR_TYPE=A28MR
		REF_FIELD_DEPTH=50.00
		REF_FIELD_DEFINED=ISOCENTER
		REF_FIELD_INPLANE=100.00
		REF_FIELD_CROSSPLANE=100.00
		REF_SCAN_POSITIONS=-85.00;-84.00;-83.00;-82.00;-81.00;-80.00;-79.00;-78.00;-77.00;-76.00;-75.00;-74.00;-73.00;-72.00;-71.00;-70.00;-69.00;-68.00;-67.00;-66.00;-65.00;-64.00;-63.00;-62.00;-61.00;-60.00;-59.00;-58.00;-57.00;-56.00;-55.00;-54.00;-53.00;-52.00;-51.00;-50.00;-49.00;-48.00;-47.00;-46.00;-45.00;-44.00;-43.00;-42.00;-41.00;-40.00;-39.00;-38.00;-37.00;-36.00;-35.00;-34.00;-33.00;-32.00;-31.00;-30.00;-29.00;-28.00;-27.00;-26.00;-25.00;-24.00;-23.00;-22.00;-21.00;-20.00;-19.00;-18.00;-17.00;-16.00;-15.00;-14.00;-13.00;-12.00;-11.00;-10.00;-9.00;-8.00;-7.00;-6.00;-5.00;-4.00;-3.00;-2.00;-1.00;0.00;1.00;2.00;3.00;4.00;5.00;6.00;7.00;8.00;9.00;10.00;11.00;12.00;13.00;14.00;15.00;16.00;17.00;18.00;19.00;20.00;21.00;22.00;23.00;24.00;25.00;26.00;27.00;28.00;29.00;30.00;31.00;32.00;33.00;34.00;35.00;36.00;37.00;38.00;39.00;40.00;41.00;42.00;43.00;44.00;45.00;46.00;47.00;48.00;49.00;50.00;51.00;52.00;53.00;54.00;55.00;56.00;57.00;58.00;59.00;60.00;61.00;62.00;63.00;64.00;65.00;66.00;67.00;68.00;69.00;70.00;71.00;72.00;73.00;74.00;75.00;76.00;77.00;78.00;79.00;80.00;81.00;82.00;83.00;84.00;85.00;
		REF_OVERSCAN_FACTOR=1.00
		SCAN_CURVETYPE=CROSSPLANE_PROFILE
		SCAN_DEPTH=20.00
		SCAN_OFFAXIS_INPLANE=0.00
		SCAN_OFFAXIS_CROSSPLANE=0.00
		SCAN_ANGLE=0.00
		SCAN_DIAGONAL=NOT_DIAGONAL
		SCAN_DIRECTION=POSITIVE
		MEAS_MEDIUM=WATER
		MEAS_PRESET=MEAS_CONTINUOUS_REFERENCE_SCAN
		MEAS_TIME=0.100
		MEAS_UNIT=A.U.
		INCLINATION_ANGLE=0.00
		PRESSURE=1013.25
		TEMPERATURE=20.00
		NORM_TEMPERATURE=20.00
		CORRECTION_FACTOR=1.0000
		EXPECTED_MAX_DOSE_RATE=3.00
		EPOM_DEPTH_SHIFT=0.2
		EPOM_MODE=SHIFT_PROTOCOL
		CORRECTIONS=SMOOTHED_CORR;CAX_CORR;INTERPOLATED_CORR;SYMMETRY_CORR;ADD_CURVES_CORR;MODIFIED_CORR;
		BEGIN_DATA
			-79.50		7.6039E+00
			-79.00		7.6039E+00
			-78.50		7.6039E+00
			-78.00		7.6039E+00
			-77.50		8.0512E+00
			-77.00		8.0512E+00
			-76.50		8.0512E+00
			-76.00		8.0512E+00
			-75.50		8.4985E+00
			-75.00		8.4985E+00
			-74.50		8.4985E+00
			-74.00		8.9458E+00
			-73.50		8.9458E+00
			-73.00		8.9458E+00
			-72.50		9.3931E+00
			-72.00		9.3931E+00
			-71.50		9.3931E+00
			-71.00		9.8404E+00
			-70.50		9.8404E+00
			-70.00		9.8404E+00
			-69.50		10.288E+00
			-69.00		10.288E+00
			-68.50		10.735E+00
			-68.00		10.735E+00
			-67.50		11.182E+00
			-67.00		11.182E+00
			-66.50		11.630E+00
			-66.00		11.630E+00
			-65.50		12.077E+00
			-65.00		12.077E+00
			-64.50		12.524E+00
			-64.00		12.971E+00
			-63.50		12.971E+00
			-63.00		13.419E+00
			-62.50		13.866E+00
			-62.00		13.866E+00
			-61.50		14.313E+00
			-61.00		14.761E+00
			-60.50		15.208E+00
			-60.00		15.655E+00
			-59.50		16.550E+00
			-59.00		16.997E+00
			-58.50		17.444E+00
			-58.00		18.339E+00
			-57.50		19.233E+00
			-57.00		20.128E+00
			-56.50		21.023E+00
			-56.00		22.365E+00
			-55.50		23.706E+00
			-55.00		25.048E+00
			-54.50		27.285E+00
			-54.00		29.968E+00
			-53.50		33.547E+00
			-53.00		37.572E+00
			-52.50		43.834E+00
			-52.00		50.991E+00
			-51.50		62.173E+00
			-51.00		74.250E+00
			-50.50		90.800E+00
			-50.00		108.24E+00
			-49.50		128.37E+00
			-49.00		149.39E+00
			-48.50		172.65E+00
			-48.00		196.36E+00
			-47.50		220.07E+00
			-47.00		243.77E+00
			-46.50		266.14E+00
			-46.00		287.61E+00
			-45.50		306.39E+00
			-45.00		324.29E+00
			-44.50		338.15E+00
			-44.00		351.57E+00
			-43.50		360.52E+00
			-43.00		369.01E+00
			-42.50		374.83E+00
			-42.00		380.20E+00
			-41.50		383.77E+00
			-41.00		387.80E+00
			-40.50		390.48E+00
			-40.00		393.17E+00
			-39.50		394.96E+00
			-39.00		397.19E+00
			-38.50		398.98E+00
			-38.00		401.22E+00
			-37.50		402.56E+00
			-37.00		403.90E+00
			-36.50		405.24E+00
			-36.00		406.59E+00
			-35.50		407.93E+00
			-35.00		409.27E+00
			-34.50		410.61E+00
			-34.00		411.51E+00
			-33.50		412.85E+00
			-33.00		413.74E+00
			-32.50		414.64E+00
			-32.00		415.53E+00
			-31.50		416.43E+00
			-31.00		417.32E+00
			-30.50		418.22E+00
			-30.00		419.56E+00
			-29.50		420.01E+00
			-29.00		420.90E+00
			-28.50		422.24E+00
			-28.00		423.14E+00
			-27.50		423.58E+00
			-27.00		424.03E+00
			-26.50		424.93E+00
			-26.00		426.27E+00
			-25.50		426.71E+00
			-25.00		427.16E+00
			-24.50		428.06E+00
			-24.00		429.40E+00
			-23.50		429.85E+00
			-23.00		430.29E+00
			-22.50		431.19E+00
			-22.00		431.63E+00
			-21.50		432.53E+00
			-21.00		433.42E+00
			-20.50		433.87E+00
			-20.00		434.77E+00
			-19.50		435.21E+00
			-19.00		435.66E+00
			-18.50		436.56E+00
			-18.00		437.00E+00
			-17.50		437.45E+00
			-17.00		437.90E+00
			-16.50		438.34E+00
			-16.00		438.79E+00
			-15.50		439.24E+00
			-15.00		440.13E+00
			-14.50		440.58E+00
			-14.00		441.03E+00
			-13.50		441.03E+00
			-13.00		441.48E+00
			-12.50		441.92E+00
			-12.00		441.92E+00
			-11.50		442.37E+00
			-11.00		442.82E+00
			-10.50		443.26E+00
			-10.00		443.71E+00
			-9.50		444.16E+00
			-9.00		444.61E+00
			-8.50		444.61E+00
			-8.00		444.61E+00
			-7.50		445.05E+00
			-7.00		445.50E+00
			-6.50		445.95E+00
			-6.00		445.95E+00
			-5.50		445.95E+00
			-5.00		446.40E+00
			-4.50		446.40E+00
			-4.00		446.40E+00
			-3.50		446.84E+00
			-3.00		447.29E+00
			-2.50		447.29E+00
			-2.00		447.29E+00
			-1.50		447.29E+00
			-1.00		447.29E+00
			-0.50		447.29E+00
			0.00		447.29E+00
			0.50		447.29E+00
			1.00		447.29E+00
			1.50		447.29E+00
			2.00		447.29E+00
			2.50		447.29E+00
			3.00		447.29E+00
			3.50		446.84E+00
			4.00		446.40E+00
			4.50		446.40E+00
			5.00		446.40E+00
			5.50		445.95E+00
			6.00		445.95E+00
			6.50		445.95E+00
			7.00		445.50E+00
			7.50		445.05E+00
			8.00		444.61E+00
			8.50		444.61E+00
			9.00		444.61E+00
			9.50		444.16E+00
			10.00		443.71E+00
			10.50		443.26E+00
			11.00		442.82E+00
			11.50		442.37E+00
			12.00		441.92E+00
			12.50		441.92E+00
			13.00		441.48E+00
			13.50		441.03E+00
			14.00		441.03E+00
			14.50		440.58E+00
			15.00		440.13E+00
			15.50		439.24E+00
			16.00		438.79E+00
			16.50		438.34E+00
			17.00		437.90E+00
			17.50		437.45E+00
			18.00		437.00E+00
			18.50		436.56E+00
			19.00		435.66E+00
			19.50		435.21E+00
			20.00		434.77E+00
			20.50		433.87E+00
			21.00		433.42E+00
			21.50		432.53E+00
			22.00		431.63E+00
			22.50		431.19E+00
			23.00		430.29E+00
			23.50		429.85E+00
			24.00		429.40E+00
			24.50		428.06E+00
			25.00		427.16E+00
			25.50		426.71E+00
			26.00		426.27E+00
			26.50		424.93E+00
			27.00		424.03E+00
			27.50		423.58E+00
			28.00		423.14E+00
			28.50		422.24E+00
			29.00		420.90E+00
			29.50		420.01E+00
			30.00		419.56E+00
			30.50		418.22E+00
			31.00		417.32E+00
			31.50		416.43E+00
			32.00		415.53E+00
			32.50		414.64E+00
			33.00		413.74E+00
			33.50		412.85E+00
			34.00		411.51E+00
			34.50		410.61E+00
			35.00		409.27E+00
			35.50		407.93E+00
			36.00		406.59E+00
			36.50		405.24E+00
			37.00		403.90E+00
			37.50		402.56E+00
			38.00		401.22E+00
			38.50		398.98E+00
			39.00		397.19E+00
			39.50		394.96E+00
			40.00		393.17E+00
			40.50		390.48E+00
			41.00		387.80E+00
			41.50		383.77E+00
			42.00		380.20E+00
			42.50		374.83E+00
			43.00		369.01E+00
			43.50		360.52E+00
			44.00		351.57E+00
			44.50		338.15E+00
			45.00		324.29E+00
			45.50		306.39E+00
			46.00		287.61E+00
			46.50		266.14E+00
			47.00		243.77E+00
			47.50		220.07E+00
			48.00		196.36E+00
			48.50		172.65E+00
			49.00		149.39E+00
			49.50		128.37E+00
			50.00		108.24E+00
			50.50		90.800E+00
			51.00		74.250E+00
			51.50		62.173E+00
			52.00		50.991E+00
			52.50		43.834E+00
			53.00		37.572E+00
			53.50		33.547E+00
			54.00		29.968E+00
			54.50		27.285E+00
			55.00		25.048E+00
			55.50		23.706E+00
			56.00		22.365E+00
			56.50		21.023E+00
			57.00		20.128E+00
			57.50		19.233E+00
			58.00		18.339E+00
			58.50		17.444E+00
			59.00		16.997E+00
			59.50		16.550E+00
			60.00		15.655E+00
			60.50		15.208E+00
			61.00		14.761E+00
			61.50		14.313E+00
			62.00		13.866E+00
			62.50		13.866E+00
			63.00		13.419E+00
			63.50		12.971E+00
			64.00		12.971E+00
			64.50		12.524E+00
			65.00		12.077E+00
			65.50		12.077E+00
			66.00		11.630E+00
			66.50		11.630E+00
			67.00		11.182E+00
			67.50		11.182E+00
			68.00		10.735E+00
			68.50		10.735E+00
			69.00		10.288E+00
			69.50		10.288E+00
			70.00		9.8404E+00
			70.50		9.8404E+00
			71.00		9.8404E+00
			71.50		9.3931E+00
			72.00		9.3931E+00
			72.50		9.3931E+00
			73.00		8.9458E+00
			73.50		8.9458E+00
			74.00		8.9458E+00
			74.50		8.4985E+00
			75.00		8.4985E+00
			75.50		8.4985E+00
			76.00		8.0512E+00
			76.50		8.0512E+00
			77.00		8.0512E+00
			77.50		8.0512E+00
			78.00		7.6039E+00
			78.50		7.6039E+00
			79.00		7.6039E+00
			79.50		7.6039E+00
		END_DATA
	END_SCAN  1
	BEGIN_SCAN  2
		TASK_NAME=tba PDD Profiles
		PROGRAM=WaterTankScans
		COMMENT=Average
		MEAS_DATE=15-Mar-2022 16:15:56
		LINAC=MRIdian
		MODALITY=X
		ISOCENTER=900.00
		INPLANE_AXIS=Y
		CROSSPLANE_AXIS=X
		DEPTH_AXIS=Depth
		INPLANE_AXIS_DIR=TARGET_GUN
		CROSSPLANE_AXIS_DIR=LEFT_RIGHT
		DEPTH_AXIS_DIR=UP_DOWN
		ENERGY=6.00
		NOMINAL_DMAX=15.00
		SSD=850.00
		SCD=450.00
		WEDGE_ANGLE=0.00
		FIELD_INPLANE=100.00
		FIELD_CROSSPLANE=100.00
		FIELD_TYPE=RECTANGULAR
		GANTRY=0.00
		GANTRY_UPRIGHT_POSITION=0
		GANTRY_ROTATION=CW
		COLL_ANGLE=0.00
		COLL_OFFSET_INPLANE=0.00
		COLL_OFFSET_CROSSPLANE=0.00
		SCAN_DEVICE=BeamScan
		SCAN_DEVICE_SETUP=BARA_LEFT_RIGHT
		ELECTROMETER=BeamScan
		RANGE_FIELD=LOW
		RANGE_REFERENCE=MEDIUM
		DETECTOR=THIMBLE_CHAMBER
		DETECTOR_RADIUS=2.40
		DETECTOR_NAME=A28MR
		DETECTOR_SN=-
		DETECTOR_CALIBRATION=588000000.00
		DETECTOR_IS_CALIBRATED=0
		DETECTOR_REFERENCE=THIMBLE_CHAMBER
		DETECTOR_REFERENCE_RADIUS=2.75
		DETECTOR_REFERENCE_NAME=A28MR
		DETECTOR_REFERENCE_SN=â€”
		DETECTOR_REFERENCE_IS_CALIBRATED=0
		DETECTOR_REFERENCE_CALIBRATION=303000000.00
		DETECTOR_HV=300.0
		DETECTOR_REFERENCE_HV=300.0
		DETECTOR_ORIENTATION=HORIZONTAL
		FILTER=FFF
		SCAN_SPEED_PROFILE=10.00
		SCAN_PROF_SPEED_DEP=DEPTH
		SCAN_SPEED_PDD=0.00
		SCAN_PDD_SPEED_DEP=ENERGY
		DETECTOR_TYPE=A28MR
		REF_FIELD_DEPTH=50.00
		REF_FIELD_DEFINED=ISOCENTER
		REF_FIELD_INPLANE=100.00
		REF_FIELD_CROSSPLANE=100.00
		REF_SCAN_POSITIONS=-85.00;-84.00;-83.00;-82.00;-81.00;-80.00;-79.00;-78.00;-77.00;-76.00;-75.00;-74.00;-73.00;-72.00;-71.00;-70.00;-69.00;-68.00;-67.00;-66.00;-65.00;-64.00;-63.00;-62.00;-61.00;-60.00;-59.00;-58.00;-57.00;-56.00;-55.00;-54.00;-53.00;-52.00;-51.00;-50.00;-49.00;-48.00;-47.00;-46.00;-45.00;-44.00;-43.00;-42.00;-41.00;-40.00;-39.00;-38.00;-37.00;-36.00;-35.00;-34.00;-33.00;-32.00;-31.00;-30.00;-29.00;-28.00;-27.00;-26.00;-25.00;-24.00;-23.00;-22.00;-21.00;-20.00;-19.00;-18.00;-17.00;-16.00;-15.00;-14.00;-13.00;-12.00;-11.00;-10.00;-9.00;-8.00;-7.00;-6.00;-5.00;-4.00;-3.00;-2.00;-1.00;0.00;1.00;2.00;3.00;4.00;5.00;6.00;7.00;8.00;9.00;10.00;11.00;12.00;13.00;14.00;15.00;16.00;17.00;18.00;19.00;20.00;21.00;22.00;23.00;24.00;25.00;26.00;27.00;28.00;29.00;30.00;31.00;32.00;33.00;34.00;35.00;36.00;37.00;38.00;39.00;40.00;41.00;42.00;43.00;44.00;45.00;46.00;47.00;48.00;49.00;50.00;51.00;52.00;53.00;54.00;55.00;56.00;57.00;58.00;59.00;60.00;61.00;62.00;63.00;64.00;65.00;66.00;67.00;68.00;69.00;70.00;71.00;72.00;73.00;74.00;75.00;76.00;77.00;78.00;79.00;80.00;81.00;82.00;83.00;84.00;85.00;
		REF_OVERSCAN_FACTOR=1.00
		SCAN_CURVETYPE=CROSSPLANE_PROFILE
		SCAN_DEPTH=55.00
		SCAN_OFFAXIS_INPLANE=0.00
		SCAN_OFFAXIS_CROSSPLANE=0.00
		SCAN_ANGLE=0.00
		SCAN_DIAGONAL=NOT_DIAGONAL
		SCAN_DIRECTION=POSITIVE
		MEAS_MEDIUM=WATER
		MEAS_PRESET=MEAS_CONTINUOUS_REFERENCE_SCAN
		MEAS_TIME=0.100
		MEAS_UNIT=A.U.
		INCLINATION_ANGLE=0.00
		PRESSURE=1013.25
		TEMPERATURE=20.00
		NORM_TEMPERATURE=20.00
		CORRECTION_FACTOR=1.0000
		EXPECTED_MAX_DOSE_RATE=3.00
		EPOM_DEPTH_SHIFT=0.2
		EPOM_MODE=SHIFT_PROTOCOL
		CORRECTIONS=CAX_CORR;INTERPOLATED_CORR;SYMMETRY_CORR;ADD_CURVES_CORR;MODIFIED_CORR;
		BEGIN_DATA
			-80.00		11.182E+00
			-79.50		11.182E+00
			-79.00		11.630E+00
			-78.50		11.630E+00
			-78.00		11.630E+00
			-77.50		12.077E+00
			-77.00		12.077E+00
			-76.50		12.524E+00
			-76.00		12.524E+00
			-75.50		12.971E+00
			-75.00		12.971E+00
			-74.50		13.419E+00
			-74.00		13.419E+00
			-73.50		13.866E+00
			-73.00		13.866E+00
			-72.50		14.313E+00
			-72.00		14.313E+00
			-71.50		14.761E+00
			-71.00		15.208E+00
			-70.50		15.208E+00
			-70.00		15.655E+00
			-69.50		15.655E+00
			-69.00		16.102E+00
			-68.50		16.550E+00
			-68.00		16.997E+00
			-67.50		17.444E+00
			-67.00		17.892E+00
			-66.50		17.892E+00
			-66.00		18.339E+00
			-65.50		18.786E+00
			-65.00		19.233E+00
			-64.50		19.681E+00
			-64.00		20.128E+00
			-63.50		20.575E+00
			-63.00		21.470E+00
			-62.50		21.917E+00
			-62.00		22.364E+00
			-61.50		23.259E+00
			-61.00		23.706E+00
			-60.50		24.601E+00
			-60.00		25.496E+00
			-59.50		26.390E+00
			-59.00		27.285E+00
			-58.50		28.179E+00
			-58.00		29.521E+00
			-57.50		30.863E+00
			-57.00		32.652E+00
			-56.50		34.441E+00
			-56.00		36.678E+00
			-55.50		40.256E+00
			-55.00		43.834E+00
			-54.50		49.202E+00
			-54.00		55.911E+00
			-53.50		64.410E+00
			-53.00		74.697E+00
			-52.50		87.669E+00
			-52.00		101.98E+00
			-51.50		118.08E+00
			-51.00		135.08E+00
			-50.50		153.42E+00
			-50.00		172.65E+00
			-49.50		191.89E+00
			-49.00		211.12E+00
			-48.50		229.91E+00
			-48.00		247.80E+00
			-47.50		264.35E+00
			-47.00		280.00E+00
			-46.50		292.97E+00
			-46.00		305.05E+00
			-45.50		313.55E+00
			-45.00		322.05E+00
			-44.50		327.86E+00
			-44.00		333.23E+00
			-43.50		337.70E+00
			-43.00		341.73E+00
			-42.50		344.41E+00
			-42.00		347.10E+00
			-41.50		349.33E+00
			-41.00		351.57E+00
			-40.50		353.36E+00
			-40.00		355.15E+00
			-39.50		356.49E+00
			-39.00		357.83E+00
			-38.50		359.62E+00
			-38.00		360.96E+00
			-37.50		362.30E+00
			-37.00		363.65E+00
			-36.50		364.54E+00
			-36.00		365.88E+00
			-35.50		366.78E+00
			-35.00		368.12E+00
			-34.50		369.01E+00
			-34.00		369.91E+00
			-33.50		371.25E+00
			-33.00		372.15E+00
			-32.50		373.04E+00
			-32.00		373.93E+00
			-31.50		374.83E+00
			-31.00		376.17E+00
			-30.50		377.07E+00
			-30.00		377.96E+00
			-29.50		378.41E+00
			-29.00		379.30E+00
			-28.50		380.20E+00
			-28.00		381.09E+00
			-27.50		381.99E+00
			-27.00		382.88E+00
			-26.50		383.33E+00
			-26.00		383.77E+00
			-25.50		384.67E+00
			-25.00		385.56E+00
			-24.50		386.01E+00
			-24.00		386.46E+00
			-23.50		387.35E+00
			-23.00		387.80E+00
			-22.50		388.69E+00
			-22.00		389.59E+00
			-21.50		390.04E+00
			-21.00		390.48E+00
			-20.50		390.93E+00
			-20.00		391.83E+00
			-19.50		392.27E+00
			-19.00		392.72E+00
			-18.50		393.62E+00
			-18.00		394.06E+00
			-17.50		394.51E+00
			-17.00		394.51E+00
			-16.50		394.96E+00
			-16.00		395.85E+00
			-15.50		396.30E+00
			-15.00		396.30E+00
			-14.50		397.19E+00
			-14.00		397.64E+00
			-13.50		397.64E+00
			-13.00		398.09E+00
			-12.50		398.54E+00
			-12.00		398.54E+00
			-11.50		398.98E+00
			-11.00		399.43E+00
			-10.50		399.43E+00
			-10.00		399.88E+00
			-9.50		399.88E+00
			-9.00		400.32E+00
			-8.50		400.77E+00
			-8.00		401.22E+00
			-7.50		401.67E+00
			-7.00		402.11E+00
			-6.50		402.11E+00
			-6.00		402.11E+00
			-5.50		402.56E+00
			-5.00		402.56E+00
			-4.50		402.56E+00
			-4.00		403.01E+00
			-3.50		403.01E+00
			-3.00		403.01E+00
			-2.50		403.46E+00
			-2.00		403.46E+00
			-1.50		403.46E+00
			-1.00		403.46E+00
			-0.50		403.46E+00
			0.00		403.46E+00
			0.50		403.46E+00
			1.00		403.46E+00
			1.50		403.46E+00
			2.00		403.46E+00
			2.50		403.46E+00
			3.00		403.01E+00
			3.50		403.01E+00
			4.00		403.01E+00
			4.50		402.56E+00
			5.00		402.56E+00
			5.50		402.56E+00
			6.00		402.11E+00
			6.50		402.11E+00
			7.00		402.11E+00
			7.50		401.67E+00
			8.00		401.22E+00
			8.50		400.77E+00
			9.00		400.32E+00
			9.50		399.88E+00
			10.00		399.88E+00
			10.50		399.43E+00
			11.00		399.43E+00
			11.50		398.98E+00
			12.00		398.54E+00
			12.50		398.54E+00
			13.00		398.09E+00
			13.50		397.64E+00
			14.00		397.64E+00
			14.50		397.19E+00
			15.00		396.30E+00
			15.50		396.30E+00
			16.00		395.85E+00
			16.50		394.96E+00
			17.00		394.51E+00
			17.50		394.51E+00
			18.00		394.06E+00
			18.50		393.62E+00
			19.00		392.72E+00
			19.50		392.27E+00
			20.00		391.83E+00
			20.50		390.93E+00
			21.00		390.48E+00
			21.50		390.04E+00
			22.00		389.59E+00
			22.50		388.69E+00
			23.00		387.80E+00
			23.50		387.35E+00
			24.00		386.46E+00
			24.50		386.01E+00
			25.00		385.56E+00
			25.50		384.67E+00
			26.00		383.77E+00
			26.50		383.33E+00
			27.00		382.88E+00
			27.50		381.99E+00
			28.00		381.09E+00
			28.50		380.20E+00
			29.00		379.30E+00
			29.50		378.41E+00
			30.00		377.96E+00
			30.50		377.07E+00
			31.00		376.17E+00
			31.50		374.83E+00
			32.00		373.93E+00
			32.50		373.04E+00
			33.00		372.15E+00
			33.50		371.25E+00
			34.00		369.91E+00
			34.50		369.01E+00
			35.00		368.12E+00
			35.50		366.78E+00
			36.00		365.88E+00
			36.50		364.54E+00
			37.00		363.65E+00
			37.50		362.30E+00
			38.00		360.96E+00
			38.50		359.62E+00
			39.00		357.83E+00
			39.50		356.49E+00
			40.00		355.15E+00
			40.50		353.36E+00
			41.00		351.57E+00
			41.50		349.33E+00
			42.00		347.10E+00
			42.50		344.41E+00
			43.00		341.73E+00
			43.50		337.70E+00
			44.00		333.23E+00
			44.50		327.86E+00
			45.00		322.05E+00
			45.50		313.55E+00
			46.00		305.05E+00
			46.50		292.97E+00
			47.00		280.00E+00
			47.50		264.35E+00
			48.00		247.80E+00
			48.50		229.91E+00
			49.00		211.12E+00
			49.50		191.89E+00
			50.00		172.65E+00
			50.50		153.42E+00
			51.00		135.08E+00
			51.50		118.08E+00
			52.00		101.98E+00
			52.50		87.669E+00
			53.00		74.697E+00
			53.50		64.410E+00
			54.00		55.911E+00
			54.50		49.202E+00
			55.00		43.834E+00
			55.50		40.256E+00
			56.00		36.678E+00
			56.50		34.441E+00
			57.00		32.652E+00
			57.50		30.863E+00
			58.00		29.521E+00
			58.50		28.179E+00
			59.00		27.285E+00
			59.50		26.390E+00
			60.00		25.496E+00
			60.50		24.601E+00
			61.00		23.706E+00
			61.50		23.259E+00
			62.00		22.364E+00
			62.50		21.917E+00
			63.00		21.470E+00
			63.50		20.575E+00
			64.00		20.128E+00
			64.50		19.681E+00
			65.00		19.233E+00
			65.50		18.786E+00
			66.00		18.339E+00
			66.50		17.892E+00
			67.00		17.892E+00
			67.50		17.444E+00
			68.00		16.997E+00
			68.50		16.550E+00
			69.00		16.102E+00
			69.50		15.655E+00
			70.00		15.655E+00
			70.50		15.208E+00
			71.00		15.208E+00
			71.50		14.761E+00
			72.00		14.313E+00
			72.50		14.313E+00
			73.00		13.866E+00
			73.50		13.866E+00
			74.00		13.419E+00
			74.50		13.419E+00
			75.00		12.971E+00
			75.50		12.971E+00
			76.00		12.524E+00
			76.50		12.524E+00
			77.00		12.077E+00
			77.50		12.077E+00
			78.00		11.630E+00
			78.50		11.630E+00
			79.00		11.630E+00
			79.50		11.182E+00
			80.00		11.182E+00
		END_DATA
	END_SCAN  2
	BEGIN_SCAN  3
		TASK_NAME=tba PDD Profiles
		PROGRAM=WaterTankScans
		COMMENT=Average
		MEAS_DATE=15-Mar-2022 16:16:39
		LINAC=MRIdian
		MODALITY=X
		ISOCENTER=900.00
		INPLANE_AXIS=Y
		CROSSPLANE_AXIS=X
		DEPTH_AXIS=Depth
		INPLANE_AXIS_DIR=TARGET_GUN
		CROSSPLANE_AXIS_DIR=LEFT_RIGHT
		DEPTH_AXIS_DIR=UP_DOWN
		ENERGY=6.00
		NOMINAL_DMAX=15.00
		SSD=850.00
		SCD=450.00
		WEDGE_ANGLE=0.00
		FIELD_INPLANE=100.00
		FIELD_CROSSPLANE=100.00
		FIELD_TYPE=RECTANGULAR
		GANTRY=0.00
		GANTRY_UPRIGHT_POSITION=0
		GANTRY_ROTATION=CW
		COLL_ANGLE=0.00
		COLL_OFFSET_INPLANE=0.00
		COLL_OFFSET_CROSSPLANE=0.00
		SCAN_DEVICE=BeamScan
		SCAN_DEVICE_SETUP=BARA_LEFT_RIGHT
		ELECTROMETER=BeamScan
		RANGE_FIELD=LOW
		RANGE_REFERENCE=MEDIUM
		DETECTOR=THIMBLE_CHAMBER
		DETECTOR_RADIUS=2.40
		DETECTOR_NAME=A28MR
		DETECTOR_SN=-
		DETECTOR_CALIBRATION=588000000.00
		DETECTOR_IS_CALIBRATED=0
		DETECTOR_REFERENCE=THIMBLE_CHAMBER
		DETECTOR_REFERENCE_RADIUS=2.75
		DETECTOR_REFERENCE_NAME=A28MR
		DETECTOR_REFERENCE_SN=â€”
		DETECTOR_REFERENCE_IS_CALIBRATED=0
		DETECTOR_REFERENCE_CALIBRATION=303000000.00
		DETECTOR_HV=300.0
		DETECTOR_REFERENCE_HV=300.0
		DETECTOR_ORIENTATION=HORIZONTAL
		FILTER=FFF
		SCAN_SPEED_PROFILE=10.00
		SCAN_PROF_SPEED_DEP=DEPTH
		SCAN_SPEED_PDD=0.00
		SCAN_PDD_SPEED_DEP=ENERGY
		DETECTOR_TYPE=A28MR
		REF_FIELD_DEPTH=50.00
		REF_FIELD_DEFINED=ISOCENTER
		REF_FIELD_INPLANE=100.00
		REF_FIELD_CROSSPLANE=100.00
		REF_SCAN_POSITIONS=-85.00;-84.00;-83.00;-82.00;-81.00;-80.00;-79.00;-78.00;-77.00;-76.00;-75.00;-74.00;-73.00;-72.00;-71.00;-70.00;-69.00;-68.00;-67.00;-66.00;-65.00;-64.00;-63.00;-62.00;-61.00;-60.00;-59.00;-58.00;-57.00;-56.00;-55.00;-54.00;-53.00;-52.00;-51.00;-50.00;-49.00;-48.00;-47.00;-46.00;-45.00;-44.00;-43.00;-42.00;-41.00;-40.00;-39.00;-38.00;-37.00;-36.00;-35.00;-34.00;-33.00;-32.00;-31.00;-30.00;-29.00;-28.00;-27.00;-26.00;-25.00;-24.00;-23.00;-22.00;-21.00;-20.00;-19.00;-18.00;-17.00;-16.00;-15.00;-14.00;-13.00;-12.00;-11.00;-10.00;-9.00;-8.00;-7.00;-6.00;-5.00;-4.00;-3.00;-2.00;-1.00;0.00;1.00;2.00;3.00;4.00;5.00;6.00;7.00;8.00;9.00;10.00;11.00;12.00;13.00;14.00;15.00;16.00;17.00;18.00;19.00;20.00;21.00;22.00;23.00;24.00;25.00;26.00;27.00;28.00;29.00;30.00;31.00;32.00;33.00;34.00;35.00;36.00;37.00;38.00;39.00;40.00;41.00;42.00;43.00;44.00;45.00;46.00;47.00;48.00;49.00;50.00;51.00;52.00;53.00;54.00;55.00;56.00;57.00;58.00;59.00;60.00;61.00;62.00;63.00;64.00;65.00;66.00;67.00;68.00;69.00;70.00;71.00;72.00;73.00;74.00;75.00;76.00;77.00;78.00;79.00;80.00;81.00;82.00;83.00;84.00;85.00;
		REF_OVERSCAN_FACTOR=1.00
		SCAN_CURVETYPE=CROSSPLANE_PROFILE
		SCAN_DEPTH=100.00
		SCAN_OFFAXIS_INPLANE=0.00
		SCAN_OFFAXIS_CROSSPLANE=0.00
		SCAN_ANGLE=0.00
		SCAN_DIAGONAL=NOT_DIAGONAL
		SCAN_DIRECTION=POSITIVE
		MEAS_MEDIUM=WATER
		MEAS_PRESET=MEAS_CONTINUOUS_REFERENCE_SCAN
		MEAS_TIME=0.100
		MEAS_UNIT=A.U.
		INCLINATION_ANGLE=0.00
		PRESSURE=1013.25
		TEMPERATURE=20.00
		NORM_TEMPERATURE=20.00
		CORRECTION_FACTOR=1.0000
		EXPECTED_MAX_DOSE_RATE=3.00
		EPOM_DEPTH_SHIFT=0.2
		EPOM_MODE=SHIFT_PROTOCOL
		CORRECTIONS=CAX_CORR;INTERPOLATED_CORR;SYMMETRY_CORR;ADD_CURVES_CORR;MODIFIED_CORR;
		BEGIN_DATA
			-80.00		14.313E+00
			-79.50		14.313E+00
			-79.00		14.761E+00
			-78.50		14.761E+00
			-78.00		15.208E+00
			-77.50		15.208E+00
			-77.00		15.655E+00
			-76.50		15.655E+00
			-76.00		16.102E+00
			-75.50		16.550E+00
			-75.00		16.550E+00
			-74.50		16.997E+00
			-74.00		17.444E+00
			-73.50		17.444E+00
			-73.00		17.892E+00
			-72.50		18.339E+00
			-72.00		18.339E+00
			-71.50		18.786E+00
			-71.00		19.233E+00
			-70.50		19.681E+00
			-70.00		19.681E+00
			-69.50		20.128E+00
			-69.00		20.575E+00
			-68.50		21.023E+00
			-68.00		21.470E+00
			-67.50		21.917E+00
			-67.00		22.364E+00
			-66.50		22.812E+00
			-66.00		23.259E+00
			-65.50		23.706E+00
			-65.00		24.154E+00
			-64.50		24.601E+00
			-64.00		25.496E+00
			-63.50		25.943E+00
			-63.00		26.390E+00
			-62.50		27.285E+00
			-62.00		28.179E+00
			-61.50		28.627E+00
			-61.00		29.521E+00
			-60.50		30.863E+00
			-60.00		31.758E+00
			-59.50		33.099E+00
			-59.00		34.889E+00
			-58.50		36.678E+00
			-58.00		39.362E+00
			-57.50		42.045E+00
			-57.00		46.071E+00
			-56.50		50.991E+00
			-56.00		57.253E+00
			-55.50		64.857E+00
			-55.00		73.803E+00
			-54.50		83.643E+00
			-54.00		95.273E+00
			-53.50		107.35E+00
			-53.00		120.32E+00
			-52.50		133.74E+00
			-52.00		147.16E+00
			-51.50		160.58E+00
			-51.00		173.55E+00
			-50.50		186.52E+00
			-50.00		198.15E+00
			-49.50		209.33E+00
			-49.00		219.17E+00
			-48.50		227.67E+00
			-48.00		234.38E+00
			-47.50		240.19E+00
			-47.00		245.11E+00
			-46.50		249.14E+00
			-46.00		252.72E+00
			-45.50		255.40E+00
			-45.00		258.09E+00
			-44.50		260.32E+00
			-44.00		262.11E+00
			-43.50		263.90E+00
			-43.00		265.24E+00
			-42.50		266.58E+00
			-42.00		267.93E+00
			-41.50		269.27E+00
			-41.00		270.61E+00
			-40.50		271.51E+00
			-40.00		272.40E+00
			-39.50		273.29E+00
			-39.00		274.64E+00
			-38.50		275.53E+00
			-38.00		276.43E+00
			-37.50		277.32E+00
			-37.00		278.21E+00
			-36.50		279.11E+00
			-36.00		280.00E+00
			-35.50		280.45E+00
			-35.00		281.35E+00
			-34.50		282.24E+00
			-34.00		283.13E+00
			-33.50		283.58E+00
			-33.00		284.48E+00
			-32.50		284.92E+00
			-32.00		285.82E+00
			-31.50		286.71E+00
			-31.00		287.61E+00
			-30.50		288.05E+00
			-30.00		288.50E+00
			-29.50		289.40E+00
			-29.00		289.84E+00
			-28.50		290.29E+00
			-28.00		291.19E+00
			-27.50		291.63E+00
			-27.00		292.08E+00
			-26.50		292.53E+00
			-26.00		292.97E+00
			-25.50		293.87E+00
			-25.00		294.32E+00
			-24.50		294.76E+00
			-24.00		295.66E+00
			-23.50		296.11E+00
			-23.00		296.55E+00
			-22.50		297.00E+00
			-22.00		297.45E+00
			-21.50		297.90E+00
			-21.00		298.34E+00
			-20.50		298.79E+00
			-20.00		299.24E+00
			-19.50		299.68E+00
			-19.00		299.68E+00
			-18.50		300.13E+00
			-18.00		300.58E+00
			-17.50		301.03E+00
			-17.00		301.47E+00
			-16.50		301.92E+00
			-16.00		302.37E+00
			-15.50		302.37E+00
			-15.00		302.82E+00
			-14.50		303.26E+00
			-14.00		303.26E+00
			-13.50		303.71E+00
			-13.00		304.16E+00
			-12.50		304.16E+00
			-12.00		304.60E+00
			-11.50		305.05E+00
			-11.00		305.50E+00
			-10.50		305.50E+00
			-10.00		305.95E+00
			-9.50		305.95E+00
			-9.00		305.95E+00
			-8.50		306.39E+00
			-8.00		306.39E+00
			-7.50		306.84E+00
			-7.00		307.29E+00
			-6.50		307.29E+00
			-6.00		307.29E+00
			-5.50		307.29E+00
			-5.00		307.29E+00
			-4.50		307.29E+00
			-4.00		307.74E+00
			-3.50		307.74E+00
			-3.00		308.18E+00
			-2.50		308.18E+00
			-2.00		308.18E+00
			-1.50		308.18E+00
			-1.00		308.18E+00
			-0.50		308.18E+00
			0.00		307.74E+00
			0.50		308.18E+00
			1.00		308.18E+00
			1.50		308.18E+00
			2.00		308.18E+00
			2.50		308.18E+00
			3.00		308.18E+00
			3.50		307.74E+00
			4.00		307.74E+00
			4.50		307.29E+00
			5.00		307.29E+00
			5.50		307.29E+00
			6.00		307.29E+00
			6.50		307.29E+00
			7.00		307.29E+00
			7.50		306.84E+00
			8.00		306.39E+00
			8.50		306.39E+00
			9.00		305.95E+00
			9.50		305.95E+00
			10.00		305.95E+00
			10.50		305.50E+00
			11.00		305.50E+00
			11.50		305.05E+00
			12.00		304.60E+00
			12.50		304.16E+00
			13.00		304.16E+00
			13.50		303.71E+00
			14.00		303.26E+00
			14.50		303.26E+00
			15.00		302.82E+00
			15.50		302.37E+00
			16.00		302.37E+00
			16.50		301.92E+00
			17.00		301.47E+00
			17.50		301.03E+00
			18.00		300.58E+00
			18.50		300.13E+00
			19.00		299.68E+00
			19.50		299.68E+00
			20.00		299.24E+00
			20.50		298.79E+00
			21.00		298.34E+00
			21.50		297.90E+00
			22.00		297.45E+00
			22.50		297.00E+00
			23.00		296.55E+00
			23.50		296.11E+00
			24.00		295.66E+00
			24.50		294.76E+00
			25.00		294.32E+00
			25.50		293.87E+00
			26.00		292.97E+00
			26.50		292.53E+00
			27.00		292.08E+00
			27.50		291.63E+00
			28.00		291.19E+00
			28.50		290.29E+00
			29.00		289.84E+00
			29.50		289.40E+00
			30.00		288.50E+00
			30.50		288.05E+00
			31.00		287.61E+00
			31.50		286.71E+00
			32.00		285.82E+00
			32.50		284.92E+00
			33.00		284.48E+00
			33.50		283.58E+00
			34.00		283.13E+00
			34.50		282.24E+00
			35.00		281.35E+00
			35.50		280.45E+00
			36.00		280.00E+00
			36.50		279.11E+00
			37.00		278.21E+00
			37.50		277.32E+00
			38.00		276.43E+00
			38.50		275.53E+00
			39.00		274.64E+00
			39.50		273.29E+00
			40.00		272.40E+00
			40.50		271.51E+00
			41.00		270.61E+00
			41.50		269.27E+00
			42.00		267.93E+00
			42.50		266.58E+00
			43.00		265.24E+00
			43.50		263.90E+00
			44.00		262.11E+00
			44.50		260.32E+00
			45.00		258.09E+00
			45.50		255.40E+00
			46.00		252.72E+00
			46.50		249.14E+00
			47.00		245.11E+00
			47.50		240.19E+00
			48.00		234.38E+00
			48.50		227.67E+00
			49.00		219.17E+00
			49.50		209.33E+00
			50.00		198.15E+00
			50.50		186.52E+00
			51.00		173.55E+00
			51.50		160.58E+00
			52.00		147.16E+00
			52.50		133.74E+00
			53.00		120.32E+00
			53.50		107.35E+00
			54.00		95.273E+00
			54.50		83.643E+00
			55.00		73.803E+00
			55.50		64.857E+00
			56.00		57.253E+00
			56.50		50.991E+00
			57.00		46.071E+00
			57.50		42.045E+00
			58.00		39.362E+00
			58.50		36.678E+00
			59.00		34.889E+00
			59.50		33.099E+00
			60.00		31.758E+00
			60.50		30.863E+00
			61.00		29.521E+00
			61.50		28.627E+00
			62.00		28.179E+00
			62.50		27.285E+00
			63.00		26.390E+00
			63.50		25.943E+00
			64.00		25.496E+00
			64.50		24.601E+00
			65.00		24.154E+00
			65.50		23.706E+00
			66.00		23.259E+00
			66.50		22.812E+00
			67.00		22.364E+00
			67.50		21.917E+00
			68.00		21.470E+00
			68.50		21.023E+00
			69.00		20.575E+00
			69.50		20.128E+00
			70.00		19.681E+00
			70.50		19.681E+00
			71.00		19.233E+00
			71.50		18.786E+00
			72.00		18.339E+00
			72.50		18.339E+00
			73.00		17.892E+00
			73.50		17.444E+00
			74.00		17.444E+00
			74.50		16.997E+00
			75.00		16.550E+00
			75.50		16.550E+00
			76.00		16.102E+00
			76.50		15.655E+00
			77.00		15.655E+00
			77.50		15.208E+00
			78.00		15.208E+00
			78.50		14.761E+00
			79.00		14.761E+00
			79.50		14.313E+00
			80.00		14.313E+00
		END_DATA
	END_SCAN  3
	BEGIN_SCAN  4
		TASK_NAME=tba PDD Profiles
		PROGRAM=WaterTankScans
		COMMENT=Average
		MEAS_DATE=15-Mar-2022 16:17:06
		LINAC=MRIdian
		MODALITY=X
		ISOCENTER=900.00
		INPLANE_AXIS=Y
		CROSSPLANE_AXIS=X
		DEPTH_AXIS=Depth
		INPLANE_AXIS_DIR=TARGET_GUN
		CROSSPLANE_AXIS_DIR=LEFT_RIGHT
		DEPTH_AXIS_DIR=UP_DOWN
		ENERGY=6.00
		NOMINAL_DMAX=15.00
		SSD=850.00
		SCD=450.00
		WEDGE_ANGLE=0.00
		FIELD_INPLANE=100.00
		FIELD_CROSSPLANE=100.00
		FIELD_TYPE=RECTANGULAR
		GANTRY=0.00
		GANTRY_UPRIGHT_POSITION=0
		GANTRY_ROTATION=CW
		COLL_ANGLE=0.00
		COLL_OFFSET_INPLANE=0.00
		COLL_OFFSET_CROSSPLANE=0.00
		SCAN_DEVICE=BeamScan
		SCAN_DEVICE_SETUP=BARA_LEFT_RIGHT
		ELECTROMETER=BeamScan
		RANGE_FIELD=LOW
		RANGE_REFERENCE=MEDIUM
		DETECTOR=THIMBLE_CHAMBER
		DETECTOR_RADIUS=2.40
		DETECTOR_NAME=A28MR
		DETECTOR_SN=-
		DETECTOR_CALIBRATION=588000000.00
		DETECTOR_IS_CALIBRATED=0
		DETECTOR_REFERENCE=THIMBLE_CHAMBER
		DETECTOR_REFERENCE_RADIUS=2.75
		DETECTOR_REFERENCE_NAME=A28MR
		DETECTOR_REFERENCE_SN=â€”
		DETECTOR_REFERENCE_IS_CALIBRATED=0
		DETECTOR_REFERENCE_CALIBRATION=303000000.00
		DETECTOR_HV=300.0
		DETECTOR_REFERENCE_HV=300.0
		DETECTOR_ORIENTATION=HORIZONTAL
		FILTER=FFF
		SCAN_SPEED_PROFILE=10.00
		SCAN_PROF_SPEED_DEP=DEPTH
		SCAN_SPEED_PDD=0.00
		SCAN_PDD_SPEED_DEP=ENERGY
		DETECTOR_TYPE=A28MR
		REF_FIELD_DEPTH=50.00
		REF_FIELD_DEFINED=ISOCENTER
		REF_FIELD_INPLANE=100.00
		REF_FIELD_CROSSPLANE=100.00
		REF_SCAN_POSITIONS=-85.00;-84.00;-83.00;-82.00;-81.00;-80.00;-79.00;-78.00;-77.00;-76.00;-75.00;-74.00;-73.00;-72.00;-71.00;-70.00;-69.00;-68.00;-67.00;-66.00;-65.00;-64.00;-63.00;-62.00;-61.00;-60.00;-59.00;-58.00;-57.00;-56.00;-55.00;-54.00;-53.00;-52.00;-51.00;-50.00;-49.00;-48.00;-47.00;-46.00;-45.00;-44.00;-43.00;-42.00;-41.00;-40.00;-39.00;-38.00;-37.00;-36.00;-35.00;-34.00;-33.00;-32.00;-31.00;-30.00;-29.00;-28.00;-27.00;-26.00;-25.00;-24.00;-23.00;-22.00;-21.00;-20.00;-19.00;-18.00;-17.00;-16.00;-15.00;-14.00;-13.00;-12.00;-11.00;-10.00;-9.00;-8.00;-7.00;-6.00;-5.00;-4.00;-3.00;-2.00;-1.00;0.00;1.00;2.00;3.00;4.00;5.00;6.00;7.00;8.00;9.00;10.00;11.00;12.00;13.00;14.00;15.00;16.00;17.00;18.00;19.00;20.00;21.00;22.00;23.00;24.00;25.00;26.00;27.00;28.00;29.00;30.00;31.00;32.00;33.00;34.00;35.00;36.00;37.00;38.00;39.00;40.00;41.00;42.00;43.00;44.00;45.00;46.00;47.00;48.00;49.00;50.00;51.00;52.00;53.00;54.00;55.00;56.00;57.00;58.00;59.00;60.00;61.00;62.00;63.00;64.00;65.00;66.00;67.00;68.00;69.00;70.00;71.00;72.00;73.00;74.00;75.00;76.00;77.00;78.00;79.00;80.00;81.00;82.00;83.00;84.00;85.00;
		REF_OVERSCAN_FACTOR=1.00
		SCAN_CURVETYPE=CROSSPLANE_PROFILE
		SCAN_DEPTH=150.00
		SCAN_OFFAXIS_INPLANE=0.00
		SCAN_OFFAXIS_CROSSPLANE=0.00
		SCAN_ANGLE=0.00
		SCAN_DIAGONAL=NOT_DIAGONAL
		SCAN_DIRECTION=POSITIVE
		MEAS_MEDIUM=WATER
		MEAS_PRESET=MEAS_CONTINUOUS_REFERENCE_SCAN
		MEAS_TIME=0.100
		MEAS_UNIT=A.U.
		INCLINATION_ANGLE=0.00
		PRESSURE=1013.25
		TEMPERATURE=20.00
		NORM_TEMPERATURE=20.00
		CORRECTION_FACTOR=1.0000
		EXPECTED_MAX_DOSE_RATE=3.00
		EPOM_DEPTH_SHIFT=0.2
		EPOM_MODE=SHIFT_PROTOCOL
		CORRECTIONS=SMOOTHED_CORR;CAX_CORR;INTERPOLATED_CORR;SYMMETRY_CORR;ADD_CURVES_CORR;MODIFIED_CORR;
		BEGIN_DATA
			-95.50		11.182E+00
			-95.00		11.182E+00
			-94.50		11.182E+00
			-94.00		11.182E+00
			-93.50		11.630E+00
			-93.00		11.630E+00
			-92.50		11.630E+00
			-92.00		12.077E+00
			-91.50		12.077E+00
			-91.00		12.077E+00
			-90.50		12.524E+00
			-90.00		12.524E+00
			-89.50		12.524E+00
			-89.00		12.971E+00
			-88.50		12.971E+00
			-88.00		13.419E+00
			-87.50		13.419E+00
			-87.00		13.419E+00
			-86.50		13.866E+00
			-86.00		13.866E+00
			-85.50		13.866E+00
			-85.00		14.313E+00
			-84.50		14.313E+00
			-84.00		14.761E+00
			-83.50		14.761E+00
			-83.00		14.761E+00
			-82.50		15.208E+00
			-82.00		15.208E+00
			-81.50		15.655E+00
			-81.00		15.655E+00
			-80.50		16.102E+00
			-80.00		16.102E+00
			-79.50		16.550E+00
			-79.00		16.550E+00
			-78.50		16.997E+00
			-78.00		16.997E+00
			-77.50		17.444E+00
			-77.00		17.892E+00
			-76.50		17.892E+00
			-76.00		18.339E+00
			-75.50		18.339E+00
			-75.00		18.786E+00
			-74.50		19.233E+00
			-74.00		19.233E+00
			-73.50		19.681E+00
			-73.00		20.128E+00
			-72.50		20.128E+00
			-72.00		20.575E+00
			-71.50		21.023E+00
			-71.00		21.470E+00
			-70.50		21.917E+00
			-70.00		21.917E+00
			-69.50		22.365E+00
			-69.00		22.812E+00
			-68.50		23.259E+00
			-68.00		23.706E+00
			-67.50		24.154E+00
			-67.00		24.601E+00
			-66.50		25.048E+00
			-66.00		25.496E+00
			-65.50		26.390E+00
			-65.00		26.837E+00
			-64.50		27.732E+00
			-64.00		28.179E+00
			-63.50		29.074E+00
			-63.00		29.968E+00
			-62.50		31.310E+00
			-62.00		32.205E+00
			-61.50		33.994E+00
			-61.00		35.783E+00
			-60.50		38.020E+00
			-60.00		41.151E+00
			-59.50		44.729E+00
			-59.00		49.202E+00
			-58.50		54.569E+00
			-58.00		61.279E+00
			-57.50		68.435E+00
			-57.00		76.487E+00
			-56.50		84.985E+00
			-56.00		93.931E+00
			-55.50		103.77E+00
			-55.00		113.16E+00
			-54.50		123.00E+00
			-54.00		132.40E+00
			-53.50		141.79E+00
			-53.00		150.29E+00
			-52.50		158.79E+00
			-52.00		165.94E+00
			-51.50		172.65E+00
			-51.00		178.02E+00
			-50.50		182.94E+00
			-50.00		186.97E+00
			-49.50		190.55E+00
			-49.00		193.23E+00
			-48.50		195.91E+00
			-48.00		197.70E+00
			-47.50		199.49E+00
			-47.00		201.28E+00
			-46.50		202.62E+00
			-46.00		203.96E+00
			-45.50		205.31E+00
			-45.00		206.20E+00
			-44.50		207.10E+00
			-44.00		208.44E+00
			-43.50		209.33E+00
			-43.00		209.78E+00
			-42.50		210.67E+00
			-42.00		211.57E+00
			-41.50		212.46E+00
			-41.00		213.36E+00
			-40.50		213.80E+00
			-40.00		214.70E+00
			-39.50		215.15E+00
			-39.00		216.04E+00
			-38.50		216.49E+00
			-38.00		217.38E+00
			-37.50		217.83E+00
			-37.00		218.28E+00
			-36.50		219.17E+00
			-36.00		219.62E+00
			-35.50		220.07E+00
			-35.00		220.51E+00
			-34.50		221.41E+00
			-34.00		221.86E+00
			-33.50		222.30E+00
			-33.00		222.75E+00
			-32.50		223.20E+00
			-32.00		224.09E+00
			-31.50		224.54E+00
			-31.00		224.99E+00
			-30.50		224.99E+00
			-30.00		225.88E+00
			-29.50		226.33E+00
			-29.00		226.78E+00
			-28.50		227.22E+00
			-28.00		227.67E+00
			-27.50		228.12E+00
			-27.00		228.57E+00
			-26.50		229.01E+00
			-26.00		229.46E+00
			-25.50		229.91E+00
			-25.00		230.35E+00
			-24.50		230.80E+00
			-24.00		230.80E+00
			-23.50		231.25E+00
			-23.00		231.70E+00
			-22.50		232.14E+00
			-22.00		232.14E+00
			-21.50		232.59E+00
			-21.00		233.04E+00
			-20.50		233.04E+00
			-20.00		233.49E+00
			-19.50		233.93E+00
			-19.00		234.38E+00
			-18.50		234.38E+00
			-18.00		234.83E+00
			-17.50		235.27E+00
			-17.00		235.27E+00
			-16.50		235.72E+00
			-16.00		235.72E+00
			-15.50		236.17E+00
			-15.00		236.17E+00
			-14.50		236.62E+00
			-14.00		236.62E+00
			-13.50		237.06E+00
			-13.00		237.06E+00
			-12.50		237.51E+00
			-12.00		237.51E+00
			-11.50		237.96E+00
			-11.00		237.96E+00
			-10.50		238.41E+00
			-10.00		238.41E+00
			-9.50		238.41E+00
			-9.00		238.85E+00
			-8.50		238.85E+00
			-8.00		238.85E+00
			-7.50		239.30E+00
			-7.00		239.30E+00
			-6.50		239.30E+00
			-6.00		239.75E+00
			-5.50		239.75E+00
			-5.00		239.75E+00
			-4.50		239.75E+00
			-4.00		239.75E+00
			-3.50		239.75E+00
			-3.00		239.75E+00
			-2.50		239.75E+00
			-2.00		240.19E+00
			-1.50		240.19E+00
			-1.00		240.19E+00
			-0.50		240.19E+00
			0.00		240.19E+00
			0.50		240.19E+00
			1.00		240.19E+00
			1.50		240.19E+00
			2.00		240.19E+00
			2.50		239.75E+00
			3.00		239.75E+00
			3.50		239.75E+00
			4.00		239.75E+00
			4.50		239.75E+00
			5.00		239.75E+00
			5.50		239.75E+00
			6.00		239.75E+00
			6.50		239.30E+00
			7.00		239.30E+00
			7.50		239.30E+00
			8.00		238.85E+00
			8.50		238.85E+00
			9.00		238.85E+00
			9.50		238.41E+00
			10.00		238.41E+00
			10.50		238.41E+00
			11.00		237.96E+00
			11.50		237.96E+00
			12.00		237.51E+00
			12.50		237.51E+00
			13.00		237.06E+00
			13.50		237.06E+00
			14.00		236.62E+00
			14.50		236.62E+00
			15.00		236.17E+00
			15.50		236.17E+00
			16.00		235.72E+00
			16.50		235.72E+00
			17.00		235.27E+00
			17.50		235.27E+00
			18.00		234.83E+00
			18.50		234.38E+00
			19.00		234.38E+00
			19.50		233.93E+00
			20.00		233.49E+00
			20.50		233.04E+00
			21.00		233.04E+00
			21.50		232.59E+00
			22.00		232.14E+00
			22.50		232.14E+00
			23.00		231.70E+00
			23.50		231.25E+00
			24.00		230.80E+00
			24.50		230.80E+00
			25.00		230.35E+00
			25.50		229.91E+00
			26.00		229.46E+00
			26.50		229.01E+00
			27.00		228.57E+00
			27.50		228.12E+00
			28.00		227.67E+00
			28.50		227.22E+00
			29.00		226.78E+00
			29.50		226.33E+00
			30.00		225.88E+00
			30.50		224.99E+00
			31.00		224.99E+00
			31.50		224.54E+00
			32.00		224.09E+00
			32.50		223.20E+00
			33.00		222.75E+00
			33.50		222.30E+00
			34.00		221.86E+00
			34.50		221.41E+00
			35.00		220.51E+00
			35.50		220.07E+00
			36.00		219.62E+00
			36.50		219.17E+00
			37.00		218.28E+00
			37.50		217.83E+00
			38.00		217.38E+00
			38.50		216.49E+00
			39.00		216.04E+00
			39.50		215.15E+00
			40.00		214.70E+00
			40.50		213.80E+00
			41.00		213.36E+00
			41.50		212.46E+00
			42.00		211.57E+00
			42.50		210.67E+00
			43.00		209.78E+00
			43.50		209.33E+00
			44.00		208.44E+00
			44.50		207.10E+00
			45.00		206.20E+00
			45.50		205.31E+00
			46.00		203.96E+00
			46.50		202.62E+00
			47.00		201.28E+00
			47.50		199.49E+00
			48.00		197.70E+00
			48.50		195.91E+00
			49.00		193.23E+00
			49.50		190.55E+00
			50.00		186.97E+00
			50.50		182.94E+00
			51.00		178.02E+00
			51.50		172.65E+00
			52.00		165.94E+00
			52.50		158.79E+00
			53.00		150.29E+00
			53.50		141.79E+00
			54.00		132.40E+00
			54.50		123.00E+00
			55.00		113.16E+00
			55.50		103.77E+00
			56.00		93.931E+00
			56.50		84.985E+00
			57.00		76.487E+00
			57.50		68.435E+00
			58.00		61.279E+00
			58.50		54.569E+00
			59.00		49.202E+00
			59.50		44.729E+00
			60.00		41.151E+00
			60.50		38.020E+00
			61.00		35.783E+00
			61.50		33.994E+00
			62.00		32.205E+00
			62.50		31.310E+00
			63.00		29.968E+00
			63.50		29.074E+00
			64.00		28.179E+00
			64.50		27.732E+00
			65.00		26.837E+00
			65.50		26.390E+00
			66.00		25.496E+00
			66.50		25.048E+00
			67.00		24.601E+00
			67.50		24.154E+00
			68.00		23.706E+00
			68.50		23.259E+00
			69.00		22.812E+00
			69.50		22.365E+00
			70.00		21.917E+00
			70.50		21.917E+00
			71.00		21.470E+00
			71.50		21.023E+00
			72.00		20.575E+00
			72.50		20.128E+00
			73.00		20.128E+00
			73.50		19.681E+00
			74.00		19.233E+00
			74.50		19.233E+00
			75.00		18.786E+00
			75.50		18.339E+00
			76.00		18.339E+00
			76.50		17.892E+00
			77.00		17.892E+00
			77.50		17.444E+00
			78.00		16.997E+00
			78.50		16.997E+00
			79.00		16.550E+00
			79.50		16.550E+00
			80.00		16.102E+00
			80.50		16.102E+00
			81.00		15.655E+00
			81.50		15.655E+00
			82.00		15.208E+00
			82.50		15.208E+00
			83.00		14.761E+00
			83.50		14.761E+00
			84.00		14.761E+00
			84.50		14.313E+00
			85.00		14.313E+00
			85.50		13.866E+00
			86.00		13.866E+00
			86.50		13.866E+00
			87.00		13.419E+00
			87.50		13.419E+00
			88.00		13.419E+00
			88.50		12.971E+00
			89.00		12.971E+00
			89.50		12.524E+00
			90.00		12.524E+00
			90.50		12.524E+00
			91.00		12.077E+00
			91.50		12.077E+00
			92.00		12.077E+00
			92.50		11.630E+00
			93.00		11.630E+00
			93.50		11.630E+00
			94.00		11.182E+00
			94.50		11.182E+00
			95.00		11.182E+00
			95.50		11.182E+00
		END_DATA
	END_SCAN  4
	BEGIN_SCAN  5
		TASK_NAME=tba PDD Profiles
		PROGRAM=WaterTankScans
		COMMENT=Average
		MEAS_DATE=15-Mar-2022 16:17:34
		LINAC=MRIdian
		MODALITY=X
		ISOCENTER=900.00
		INPLANE_AXIS=Y
		CROSSPLANE_AXIS=X
		DEPTH_AXIS=Depth
		INPLANE_AXIS_DIR=TARGET_GUN
		CROSSPLANE_AXIS_DIR=LEFT_RIGHT
		DEPTH_AXIS_DIR=UP_DOWN
		ENERGY=6.00
		NOMINAL_DMAX=15.00
		SSD=850.00
		SCD=450.00
		WEDGE_ANGLE=0.00
		FIELD_INPLANE=100.00
		FIELD_CROSSPLANE=100.00
		FIELD_TYPE=RECTANGULAR
		GANTRY=0.00
		GANTRY_UPRIGHT_POSITION=0
		GANTRY_ROTATION=CW
		COLL_ANGLE=0.00
		COLL_OFFSET_INPLANE=0.00
		COLL_OFFSET_CROSSPLANE=0.00
		SCAN_DEVICE=BeamScan
		SCAN_DEVICE_SETUP=BARA_LEFT_RIGHT
		ELECTROMETER=BeamScan
		RANGE_FIELD=LOW
		RANGE_REFERENCE=MEDIUM
		DETECTOR=THIMBLE_CHAMBER
		DETECTOR_RADIUS=2.40
		DETECTOR_NAME=A28MR
		DETECTOR_SN=-
		DETECTOR_CALIBRATION=588000000.00
		DETECTOR_IS_CALIBRATED=0
		DETECTOR_REFERENCE=THIMBLE_CHAMBER
		DETECTOR_REFERENCE_RADIUS=2.75
		DETECTOR_REFERENCE_NAME=A28MR
		DETECTOR_REFERENCE_SN=â€”
		DETECTOR_REFERENCE_IS_CALIBRATED=0
		DETECTOR_REFERENCE_CALIBRATION=303000000.00
		DETECTOR_HV=300.0
		DETECTOR_REFERENCE_HV=300.0
		DETECTOR_ORIENTATION=HORIZONTAL
		FILTER=FFF
		SCAN_SPEED_PROFILE=10.00
		SCAN_PROF_SPEED_DEP=DEPTH
		SCAN_SPEED_PDD=0.00
		SCAN_PDD_SPEED_DEP=ENERGY
		DETECTOR_TYPE=A28MR
		REF_FIELD_DEPTH=50.00
		REF_FIELD_DEFINED=ISOCENTER
		REF_FIELD_INPLANE=100.00
		REF_FIELD_CROSSPLANE=100.00
		REF_SCAN_POSITIONS=-85.00;-84.00;-83.00;-82.00;-81.00;-80.00;-79.00;-78.00;-77.00;-76.00;-75.00;-74.00;-73.00;-72.00;-71.00;-70.00;-69.00;-68.00;-67.00;-66.00;-65.00;-64.00;-63.00;-62.00;-61.00;-60.00;-59.00;-58.00;-57.00;-56.00;-55.00;-54.00;-53.00;-52.00;-51.00;-50.00;-49.00;-48.00;-47.00;-46.00;-45.00;-44.00;-43.00;-42.00;-41.00;-40.00;-39.00;-38.00;-37.00;-36.00;-35.00;-34.00;-33.00;-32.00;-31.00;-30.00;-29.00;-28.00;-27.00;-26.00;-25.00;-24.00;-23.00;-22.00;-21.00;-20.00;-19.00;-18.00;-17.00;-16.00;-15.00;-14.00;-13.00;-12.00;-11.00;-10.00;-9.00;-8.00;-7.00;-6.00;-5.00;-4.00;-3.00;-2.00;-1.00;0.00;1.00;2.00;3.00;4.00;5.00;6.00;7.00;8.00;9.00;10.00;11.00;12.00;13.00;14.00;15.00;16.00;17.00;18.00;19.00;20.00;21.00;22.00;23.00;24.00;25.00;26.00;27.00;28.00;29.00;30.00;31.00;32.00;33.00;34.00;35.00;36.00;37.00;38.00;39.00;40.00;41.00;42.00;43.00;44.00;45.00;46.00;47.00;48.00;49.00;50.00;51.00;52.00;53.00;54.00;55.00;56.00;57.00;58.00;59.00;60.00;61.00;62.00;63.00;64.00;65.00;66.00;67.00;68.00;69.00;70.00;71.00;72.00;73.00;74.00;75.00;76.00;77.00;78.00;79.00;80.00;81.00;82.00;83.00;84.00;85.00;
		REF_OVERSCAN_FACTOR=1.00
		SCAN_CURVETYPE=CROSSPLANE_PROFILE
		SCAN_DEPTH=200.00
		SCAN_OFFAXIS_INPLANE=0.00
		SCAN_OFFAXIS_CROSSPLANE=0.00
		SCAN_ANGLE=0.00
		SCAN_DIAGONAL=NOT_DIAGONAL
		SCAN_DIRECTION=POSITIVE
		MEAS_MEDIUM=WATER
		MEAS_PRESET=MEAS_CONTINUOUS_REFERENCE_SCAN
		MEAS_TIME=0.100
		MEAS_UNIT=A.U.
		INCLINATION_ANGLE=0.00
		PRESSURE=1013.25
		TEMPERATURE=20.00
		NORM_TEMPERATURE=20.00
		CORRECTION_FACTOR=1.0000
		EXPECTED_MAX_DOSE_RATE=3.00
		EPOM_DEPTH_SHIFT=0.2
		EPOM_MODE=SHIFT_PROTOCOL
		CORRECTIONS=SMOOTHED_CORR;CAX_CORR;INTERPOLATED_CORR;SYMMETRY_CORR;ADD_CURVES_CORR;MODIFIED_CORR;
		BEGIN_DATA
			-94.00		11.182E+00
			-93.50		11.182E+00
			-93.00		11.182E+00
			-92.50		11.630E+00
			-92.00		11.630E+00
			-91.50		11.630E+00
			-91.00		11.630E+00
			-90.50		12.077E+00
			-90.00		12.077E+00
			-89.50		12.077E+00
			-89.00		12.524E+00
			-88.50		12.524E+00
			-88.00		12.524E+00
			-87.50		12.971E+00
			-87.00		12.971E+00
			-86.50		12.971E+00
			-86.00		13.419E+00
			-85.50		13.419E+00
			-85.00		13.419E+00
			-84.50		13.866E+00
			-84.00		13.866E+00
			-83.50		14.313E+00
			-83.00		14.313E+00
			-82.50		14.313E+00
			-82.00		14.761E+00
			-81.50		14.761E+00
			-81.00		15.208E+00
			-80.50		15.208E+00
			-80.00		15.208E+00
			-79.50		15.655E+00
			-79.00		15.655E+00
			-78.50		16.102E+00
			-78.00		16.102E+00
			-77.50		16.550E+00
			-77.00		16.550E+00
			-76.50		16.997E+00
			-76.00		16.997E+00
			-75.50		17.444E+00
			-75.00		17.444E+00
			-74.50		17.892E+00
			-74.00		18.339E+00
			-73.50		18.339E+00
			-73.00		18.786E+00
			-72.50		19.233E+00
			-72.00		19.233E+00
			-71.50		19.681E+00
			-71.00		20.128E+00
			-70.50		20.128E+00
			-70.00		20.575E+00
			-69.50		21.023E+00
			-69.00		21.470E+00
			-68.50		21.917E+00
			-68.00		21.917E+00
			-67.50		22.812E+00
			-67.00		23.259E+00
			-66.50		23.706E+00
			-66.00		24.601E+00
			-65.50		25.048E+00
			-65.00		25.943E+00
			-64.50		27.285E+00
			-64.00		28.627E+00
			-63.50		29.968E+00
			-63.00		31.758E+00
			-62.50		34.441E+00
			-62.00		37.125E+00
			-61.50		40.703E+00
			-61.00		44.729E+00
			-60.50		49.649E+00
			-60.00		55.017E+00
			-59.50		60.384E+00
			-59.00		66.646E+00
			-58.50		72.908E+00
			-58.00		79.618E+00
			-57.50		86.327E+00
			-57.00		93.036E+00
			-56.50		99.746E+00
			-56.00		106.01E+00
			-55.50		111.82E+00
			-55.00		117.19E+00
			-54.50		122.11E+00
			-54.00		126.58E+00
			-53.50		130.16E+00
			-53.00		133.29E+00
			-52.50		135.98E+00
			-52.00		138.21E+00
			-51.50		140.45E+00
			-51.00		141.79E+00
			-50.50		143.58E+00
			-50.00		144.92E+00
			-49.50		145.82E+00
			-49.00		146.71E+00
			-48.50		148.05E+00
			-48.00		148.50E+00
			-47.50		149.39E+00
			-47.00		150.29E+00
			-46.50		150.74E+00
			-46.00		151.63E+00
			-45.50		152.08E+00
			-45.00		152.53E+00
			-44.50		153.42E+00
			-44.00		153.87E+00
			-43.50		154.32E+00
			-43.00		154.76E+00
			-42.50		155.21E+00
			-42.00		156.10E+00
			-41.50		156.55E+00
			-41.00		157.00E+00
			-40.50		157.45E+00
			-40.00		157.89E+00
			-39.50		158.34E+00
			-39.00		158.79E+00
			-38.50		158.79E+00
			-38.00		159.24E+00
			-37.50		159.68E+00
			-37.00		160.13E+00
			-36.50		160.58E+00
			-36.00		161.02E+00
			-35.50		161.47E+00
			-35.00		161.92E+00
			-34.50		161.92E+00
			-34.00		162.37E+00
			-33.50		162.81E+00
			-33.00		163.26E+00
			-32.50		163.71E+00
			-32.00		163.71E+00
			-31.50		164.16E+00
			-31.00		164.60E+00
			-30.50		164.60E+00
			-30.00		165.05E+00
			-29.50		165.50E+00
			-29.00		165.94E+00
			-28.50		166.39E+00
			-28.00		166.39E+00
			-27.50		166.84E+00
			-27.00		166.84E+00
			-26.50		167.29E+00
			-26.00		167.73E+00
			-25.50		167.73E+00
			-25.00		168.18E+00
			-24.50		168.18E+00
			-24.00		168.63E+00
			-23.50		169.08E+00
			-23.00		169.08E+00
			-22.50		169.52E+00
			-22.00		169.52E+00
			-21.50		169.97E+00
			-21.00		170.42E+00
			-20.50		170.42E+00
			-20.00		170.42E+00
			-19.50		170.86E+00
			-19.00		170.86E+00
			-18.50		171.31E+00
			-18.00		171.31E+00
			-17.50		171.76E+00
			-17.00		171.76E+00
			-16.50		171.76E+00
			-16.00		172.21E+00
			-15.50		172.21E+00
			-15.00		172.21E+00
			-14.50		172.65E+00
			-14.00		172.65E+00
			-13.50		173.10E+00
			-13.00		173.10E+00
			-12.50		173.10E+00
			-12.00		173.10E+00
			-11.50		173.55E+00
			-11.00		173.55E+00
			-10.50		173.55E+00
			-10.00		174.00E+00
			-9.50		174.00E+00
			-9.00		174.00E+00
			-8.50		174.00E+00
			-8.00		174.00E+00
			-7.50		174.44E+00
			-7.00		174.44E+00
			-6.50		174.44E+00
			-6.00		174.44E+00
			-5.50		174.44E+00
			-5.00		174.44E+00
			-4.50		174.89E+00
			-4.00		174.89E+00
			-3.50		174.89E+00
			-3.00		174.89E+00
			-2.50		174.89E+00
			-2.00		174.89E+00
			-1.50		174.89E+00
			-1.00		174.89E+00
			-0.50		174.89E+00
			0.00		174.89E+00
			0.50		174.89E+00
			1.00		174.89E+00
			1.50		174.89E+00
			2.00		174.89E+00
			2.50		174.89E+00
			3.00		174.89E+00
			3.50		174.89E+00
			4.00		174.89E+00
			4.50		174.89E+00
			5.00		174.44E+00
			5.50		174.44E+00
			6.00		174.44E+00
			6.50		174.44E+00
			7.00		174.44E+00
			7.50		174.44E+00
			8.00		174.00E+00
			8.50		174.00E+00
			9.00		174.00E+00
			9.50		174.00E+00
			10.00		174.00E+00
			10.50		173.55E+00
			11.00		173.55E+00
			11.50		173.55E+00
			12.00		173.10E+00
			12.50		173.10E+00
			13.00		173.10E+00
			13.50		173.10E+00
			14.00		172.65E+00
			14.50		172.65E+00
			15.00		172.21E+00
			15.50		172.21E+00
			16.00		172.21E+00
			16.50		171.76E+00
			17.00		171.76E+00
			17.50		171.76E+00
			18.00		171.31E+00
			18.50		171.31E+00
			19.00		170.86E+00
			19.50		170.86E+00
			20.00		170.42E+00
			20.50		170.42E+00
			21.00		170.42E+00
			21.50		169.97E+00
			22.00		169.52E+00
			22.50		169.52E+00
			23.00		169.08E+00
			23.50		169.08E+00
			24.00		168.63E+00
			24.50		168.18E+00
			25.00		168.18E+00
			25.50		167.73E+00
			26.00		167.73E+00
			26.50		167.29E+00
			27.00		166.84E+00
			27.50		166.84E+00
			28.00		166.39E+00
			28.50		166.39E+00
			29.00		165.94E+00
			29.50		165.50E+00
			30.00		165.05E+00
			30.50		164.60E+00
			31.00		164.60E+00
			31.50		164.16E+00
			32.00		163.71E+00
			32.50		163.71E+00
			33.00		163.26E+00
			33.50		162.81E+00
			34.00		162.37E+00
			34.50		161.92E+00
			35.00		161.92E+00
			35.50		161.47E+00
			36.00		161.02E+00
			36.50		160.58E+00
			37.00		160.13E+00
			37.50		159.68E+00
			38.00		159.24E+00
			38.50		158.79E+00
			39.00		158.79E+00
			39.50		158.34E+00
			40.00		157.89E+00
			40.50		157.45E+00
			41.00		157.00E+00
			41.50		156.55E+00
			42.00		156.10E+00
			42.50		155.21E+00
			43.00		154.76E+00
			43.50		154.32E+00
			44.00		153.87E+00
			44.50		153.42E+00
			45.00		152.53E+00
			45.50		152.08E+00
			46.00		151.63E+00
			46.50		150.74E+00
			47.00		150.29E+00
			47.50		149.39E+00
			48.00		148.50E+00
			48.50		148.05E+00
			49.00		146.71E+00
			49.50		145.82E+00
			50.00		144.92E+00
			50.50		143.58E+00
			51.00		141.79E+00
			51.50		140.45E+00
			52.00		138.21E+00
			52.50		135.98E+00
			53.00		133.29E+00
			53.50		130.16E+00
			54.00		126.58E+00
			54.50		122.11E+00
			55.00		117.19E+00
			55.50		111.82E+00
			56.00		106.01E+00
			56.50		99.746E+00
			57.00		93.036E+00
			57.50		86.327E+00
			58.00		79.618E+00
			58.50		72.908E+00
			59.00		66.646E+00
			59.50		60.384E+00
			60.00		55.017E+00
			60.50		49.649E+00
			61.00		44.729E+00
			61.50		40.703E+00
			62.00		37.125E+00
			62.50		34.441E+00
			63.00		31.758E+00
			63.50		29.968E+00
			64.00		28.627E+00
			64.50		27.285E+00
			65.00		25.943E+00
			65.50		25.048E+00
			66.00		24.601E+00
			66.50		23.706E+00
			67.00		23.259E+00
			67.50		22.812E+00
			68.00		21.917E+00
			68.50		21.917E+00
			69.00		21.470E+00
			69.50		21.023E+00
			70.00		20.575E+00
			70.50		20.128E+00
			71.00		20.128E+00
			71.50		19.681E+00
			72.00		19.233E+00
			72.50		19.233E+00
			73.00		18.786E+00
			73.50		18.339E+00
			74.00		18.339E+00
			74.50		17.892E+00
			75.00		17.444E+00
			75.50		17.444E+00
			76.00		16.997E+00
			76.50		16.997E+00
			77.00		16.550E+00
			77.50		16.550E+00
			78.00		16.102E+00
			78.50		16.102E+00
			79.00		15.655E+00
			79.50		15.655E+00
			80.00		15.208E+00
			80.50		15.208E+00
			81.00		15.208E+00
			81.50		14.761E+00
			82.00		14.761E+00
			82.50		14.313E+00
			83.00		14.313E+00
			83.50		14.313E+00
			84.00		13.866E+00
			84.50		13.866E+00
			85.00		13.419E+00
			85.50		13.419E+00
			86.00		13.419E+00
			86.50		12.971E+00
			87.00		12.971E+00
			87.50		12.971E+00
			88.00		12.524E+00
			88.50		12.524E+00
			89.00		12.524E+00
			89.50		12.077E+00
			90.00		12.077E+00
			90.50		12.077E+00
			91.00		11.630E+00
			91.50		11.630E+00
			92.00		11.630E+00
			92.50		11.630E+00
			93.00		11.182E+00
			93.50		11.182E+00
			94.00		11.182E+00
		END_DATA
	END_SCAN  5
	BEGIN_SCAN  6
		TASK_NAME=tba PDD Profiles
		PROGRAM=WaterTankScans
		COMMENT=Average
		MEAS_DATE=15-Mar-2022 16:18:02
		LINAC=MRIdian
		MODALITY=X
		ISOCENTER=900.00
		INPLANE_AXIS=Y
		CROSSPLANE_AXIS=X
		DEPTH_AXIS=Depth
		INPLANE_AXIS_DIR=TARGET_GUN
		CROSSPLANE_AXIS_DIR=LEFT_RIGHT
		DEPTH_AXIS_DIR=UP_DOWN
		ENERGY=6.00
		NOMINAL_DMAX=15.00
		SSD=850.00
		SCD=450.00
		WEDGE_ANGLE=0.00
		FIELD_INPLANE=100.00
		FIELD_CROSSPLANE=100.00
		FIELD_TYPE=RECTANGULAR
		GANTRY=0.00
		GANTRY_UPRIGHT_POSITION=0
		GANTRY_ROTATION=CW
		COLL_ANGLE=0.00
		COLL_OFFSET_INPLANE=0.00
		COLL_OFFSET_CROSSPLANE=0.00
		SCAN_DEVICE=BeamScan
		SCAN_DEVICE_SETUP=BARA_LEFT_RIGHT
		ELECTROMETER=BeamScan
		RANGE_FIELD=LOW
		RANGE_REFERENCE=MEDIUM
		DETECTOR=THIMBLE_CHAMBER
		DETECTOR_RADIUS=2.40
		DETECTOR_NAME=A28MR
		DETECTOR_SN=-
		DETECTOR_CALIBRATION=588000000.00
		DETECTOR_IS_CALIBRATED=0
		DETECTOR_REFERENCE=THIMBLE_CHAMBER
		DETECTOR_REFERENCE_RADIUS=2.75
		DETECTOR_REFERENCE_NAME=A28MR
		DETECTOR_REFERENCE_SN=â€”
		DETECTOR_REFERENCE_IS_CALIBRATED=0
		DETECTOR_REFERENCE_CALIBRATION=303000000.00
		DETECTOR_HV=300.0
		DETECTOR_REFERENCE_HV=300.0
		DETECTOR_ORIENTATION=HORIZONTAL
		FILTER=FFF
		SCAN_SPEED_PROFILE=10.00
		SCAN_PROF_SPEED_DEP=DEPTH
		SCAN_SPEED_PDD=0.00
		SCAN_PDD_SPEED_DEP=ENERGY
		DETECTOR_TYPE=A28MR
		REF_FIELD_DEPTH=50.00
		REF_FIELD_DEFINED=ISOCENTER
		REF_FIELD_INPLANE=100.00
		REF_FIELD_CROSSPLANE=100.00
		REF_SCAN_POSITIONS=-85.00;-84.00;-83.00;-82.00;-81.00;-80.00;-79.00;-78.00;-77.00;-76.00;-75.00;-74.00;-73.00;-72.00;-71.00;-70.00;-69.00;-68.00;-67.00;-66.00;-65.00;-64.00;-63.00;-62.00;-61.00;-60.00;-59.00;-58.00;-57.00;-56.00;-55.00;-54.00;-53.00;-52.00;-51.00;-50.00;-49.00;-48.00;-47.00;-46.00;-45.00;-44.00;-43.00;-42.00;-41.00;-40.00;-39.00;-38.00;-37.00;-36.00;-35.00;-34.00;-33.00;-32.00;-31.00;-30.00;-29.00;-28.00;-27.00;-26.00;-25.00;-24.00;-23.00;-22.00;-21.00;-20.00;-19.00;-18.00;-17.00;-16.00;-15.00;-14.00;-13.00;-12.00;-11.00;-10.00;-9.00;-8.00;-7.00;-6.00;-5.00;-4.00;-3.00;-2.00;-1.00;0.00;1.00;2.00;3.00;4.00;5.00;6.00;7.00;8.00;9.00;10.00;11.00;12.00;13.00;14.00;15.00;16.00;17.00;18.00;19.00;20.00;21.00;22.00;23.00;24.00;25.00;26.00;27.00;28.00;29.00;30.00;31.00;32.00;33.00;34.00;35.00;36.00;37.00;38.00;39.00;40.00;41.00;42.00;43.00;44.00;45.00;46.00;47.00;48.00;49.00;50.00;51.00;52.00;53.00;54.00;55.00;56.00;57.00;58.00;59.00;60.00;61.00;62.00;63.00;64.00;65.00;66.00;67.00;68.00;69.00;70.00;71.00;72.00;73.00;74.00;75.00;76.00;77.00;78.00;79.00;80.00;81.00;82.00;83.00;84.00;85.00;
		REF_OVERSCAN_FACTOR=1.00
		SCAN_CURVETYPE=CROSSPLANE_PROFILE
		SCAN_DEPTH=250.00
		SCAN_OFFAXIS_INPLANE=0.00
		SCAN_OFFAXIS_CROSSPLANE=0.00
		SCAN_ANGLE=0.00
		SCAN_DIAGONAL=NOT_DIAGONAL
		SCAN_DIRECTION=POSITIVE
		MEAS_MEDIUM=WATER
		MEAS_PRESET=MEAS_CONTINUOUS_REFERENCE_SCAN
		MEAS_TIME=0.100
		MEAS_UNIT=A.U.
		INCLINATION_ANGLE=0.00
		PRESSURE=1013.25
		TEMPERATURE=20.00
		NORM_TEMPERATURE=20.00
		CORRECTION_FACTOR=1.0000
		EXPECTED_MAX_DOSE_RATE=3.00
		EPOM_DEPTH_SHIFT=0.2
		EPOM_MODE=SHIFT_PROTOCOL
		CORRECTIONS=SMOOTHED_CORR;CAX_CORR;INTERPOLATED_CORR;SYMMETRY_CORR;ADD_CURVES_CORR;MODIFIED_CORR;
		BEGIN_DATA
			-93.50		10.288E+00
			-93.00		10.288E+00
			-92.50		10.288E+00
			-92.00		10.288E+00
			-91.50		10.735E+00
			-91.00		10.735E+00
			-90.50		10.735E+00
			-90.00		11.182E+00
			-89.50		11.182E+00
			-89.00		11.182E+00
			-88.50		11.182E+00
			-88.00		11.182E+00
			-87.50		11.630E+00
			-87.00		11.630E+00
			-86.50		11.630E+00
			-86.00		12.077E+00
			-85.50		12.077E+00
			-85.00		12.077E+00
			-84.50		12.524E+00
			-84.00		12.524E+00
			-83.50		12.524E+00
			-83.00		12.971E+00
			-82.50		12.971E+00
			-82.00		12.971E+00
			-81.50		13.419E+00
			-81.00		13.419E+00
			-80.50		13.419E+00
			-80.00		13.866E+00
			-79.50		13.866E+00
			-79.00		13.866E+00
			-78.50		14.313E+00
			-78.00		14.313E+00
			-77.50		14.761E+00
			-77.00		14.761E+00
			-76.50		15.208E+00
			-76.00		15.208E+00
			-75.50		15.208E+00
			-75.00		15.655E+00
			-74.50		16.102E+00
			-74.00		16.102E+00
			-73.50		16.550E+00
			-73.00		16.550E+00
			-72.50		16.997E+00
			-72.00		16.997E+00
			-71.50		17.444E+00
			-71.00		17.892E+00
			-70.50		17.892E+00
			-70.00		18.339E+00
			-69.50		18.786E+00
			-69.00		19.233E+00
			-68.50		20.128E+00
			-68.00		20.575E+00
			-67.50		21.470E+00
			-67.00		22.365E+00
			-66.50		23.259E+00
			-66.00		24.601E+00
			-65.50		25.943E+00
			-65.00		28.179E+00
			-64.50		30.416E+00
			-64.00		33.099E+00
			-63.50		36.230E+00
			-63.00		39.809E+00
			-62.50		43.834E+00
			-62.00		47.860E+00
			-61.50		52.333E+00
			-61.00		56.806E+00
			-60.50		61.726E+00
			-60.00		66.199E+00
			-59.50		71.119E+00
			-59.00		75.592E+00
			-58.50		79.618E+00
			-58.00		83.643E+00
			-57.50		87.222E+00
			-57.00		90.800E+00
			-56.50		93.484E+00
			-56.00		96.167E+00
			-55.50		98.404E+00
			-55.00		100.19E+00
			-54.50		101.98E+00
			-54.00		103.32E+00
			-53.50		104.67E+00
			-53.00		105.56E+00
			-52.50		106.46E+00
			-52.00		107.35E+00
			-51.50		107.80E+00
			-51.00		108.69E+00
			-50.50		109.14E+00
			-50.00		110.03E+00
			-49.50		110.48E+00
			-49.00		110.93E+00
			-48.50		111.38E+00
			-48.00		111.82E+00
			-47.50		111.82E+00
			-47.00		112.27E+00
			-46.50		112.72E+00
			-46.00		113.16E+00
			-45.50		113.61E+00
			-45.00		114.06E+00
			-44.50		114.51E+00
			-44.00		114.95E+00
			-43.50		114.95E+00
			-43.00		115.40E+00
			-42.50		115.85E+00
			-42.00		116.30E+00
			-41.50		116.30E+00
			-41.00		116.74E+00
			-40.50		117.19E+00
			-40.00		117.19E+00
			-39.50		117.64E+00
			-39.00		118.08E+00
			-38.50		118.08E+00
			-38.00		118.53E+00
			-37.50		118.53E+00
			-37.00		118.98E+00
			-36.50		119.43E+00
			-36.00		119.43E+00
			-35.50		119.87E+00
			-35.00		119.87E+00
			-34.50		120.32E+00
			-34.00		120.32E+00
			-33.50		120.77E+00
			-33.00		120.77E+00
			-32.50		121.22E+00
			-32.00		121.66E+00
			-31.50		121.66E+00
			-31.00		122.11E+00
			-30.50		122.11E+00
			-30.00		122.56E+00
			-29.50		122.56E+00
			-29.00		123.00E+00
			-28.50		123.00E+00
			-28.00		123.45E+00
			-27.50		123.45E+00
			-27.00		123.45E+00
			-26.50		123.90E+00
			-26.00		123.90E+00
			-25.50		124.35E+00
			-25.00		124.35E+00
			-24.50		124.79E+00
			-24.00		124.79E+00
			-23.50		124.79E+00
			-23.00		125.24E+00
			-22.50		125.24E+00
			-22.00		125.24E+00
			-21.50		125.69E+00
			-21.00		125.69E+00
			-20.50		126.14E+00
			-20.00		126.14E+00
			-19.50		126.14E+00
			-19.00		126.58E+00
			-18.50		126.58E+00
			-18.00		126.58E+00
			-17.50		126.58E+00
			-17.00		127.03E+00
			-16.50		127.03E+00
			-16.00		127.03E+00
			-15.50		127.03E+00
			-15.00		127.48E+00
			-14.50		127.48E+00
			-14.00		127.48E+00
			-13.50		127.48E+00
			-13.00		127.92E+00
			-12.50		127.92E+00
			-12.00		127.92E+00
			-11.50		127.92E+00
			-11.00		127.92E+00
			-10.50		128.37E+00
			-10.00		128.37E+00
			-9.50		128.37E+00
			-9.00		128.37E+00
			-8.50		128.37E+00
			-8.00		128.82E+00
			-7.50		128.82E+00
			-7.00		128.82E+00
			-6.50		128.82E+00
			-6.00		128.82E+00
			-5.50		128.82E+00
			-5.00		128.82E+00
			-4.50		128.82E+00
			-4.00		128.82E+00
			-3.50		128.82E+00
			-3.00		128.82E+00
			-2.50		128.82E+00
			-2.00		128.82E+00
			-1.50		129.27E+00
			-1.00		129.27E+00
			-0.50		129.27E+00
			0.00		129.27E+00
			0.50		129.27E+00
			1.00		129.27E+00
			1.50		129.27E+00
			2.00		128.82E+00
			2.50		128.82E+00
			3.00		128.82E+00
			3.50		128.82E+00
			4.00		128.82E+00
			4.50		128.82E+00
			5.00		128.82E+00
			5.50		128.82E+00
			6.00		128.82E+00
			6.50		128.82E+00
			7.00		128.82E+00
			7.50		128.82E+00
			8.00		128.82E+00
			8.50		128.37E+00
			9.00		128.37E+00
			9.50		128.37E+00
			10.00		128.37E+00
			10.50		128.37E+00
			11.00		127.92E+00
			11.50		127.92E+00
			12.00		127.92E+00
			12.50		127.92E+00
			13.00		127.92E+00
			13.50		127.48E+00
			14.00		127.48E+00
			14.50		127.48E+00
			15.00		127.48E+00
			15.50		127.03E+00
			16.00		127.03E+00
			16.50		127.03E+00
			17.00		127.03E+00
			17.50		126.58E+00
			18.00		126.58E+00
			18.50		126.58E+00
			19.00		126.58E+00
			19.50		126.14E+00
			20.00		126.14E+00
			20.50		126.14E+00
			21.00		125.69E+00
			21.50		125.69E+00
			22.00		125.24E+00
			22.50		125.24E+00
			23.00		125.24E+00
			23.50		124.79E+00
			24.00		124.79E+00
			24.50		124.79E+00
			25.00		124.35E+00
			25.50		124.35E+00
			26.00		123.90E+00
			26.50		123.90E+00
			27.00		123.45E+00
			27.50		123.45E+00
			28.00		123.45E+00
			28.50		123.00E+00
			29.00		123.00E+00
			29.50		122.56E+00
			30.00		122.56E+00
			30.50		122.11E+00
			31.00		122.11E+00
			31.50		121.66E+00
			32.00		121.66E+00
			32.50		121.22E+00
			33.00		120.77E+00
			33.50		120.77E+00
			34.00		120.32E+00
			34.50		120.32E+00
			35.00		119.87E+00
			35.50		119.87E+00
			36.00		119.43E+00
			36.50		119.43E+00
			37.00		118.98E+00
			37.50		118.53E+00
			38.00		118.53E+00
			38.50		118.08E+00
			39.00		118.08E+00
			39.50		117.64E+00
			40.00		117.19E+00
			40.50		117.19E+00
			41.00		116.74E+00
			41.50		116.30E+00
			42.00		116.30E+00
			42.50		115.85E+00
			43.00		115.40E+00
			43.50		114.95E+00
			44.00		114.95E+00
			44.50		114.51E+00
			45.00		114.06E+00
			45.50		113.61E+00
			46.00		113.16E+00
			46.50		112.72E+00
			47.00		112.27E+00
			47.50		111.82E+00
			48.00		111.82E+00
			48.50		111.38E+00
			49.00		110.93E+00
			49.50		110.48E+00
			50.00		110.03E+00
			50.50		109.14E+00
			51.00		108.69E+00
			51.50		107.80E+00
			52.00		107.35E+00
			52.50		106.46E+00
			53.00		105.56E+00
			53.50		104.67E+00
			54.00		103.32E+00
			54.50		101.98E+00
			55.00		100.19E+00
			55.50		98.404E+00
			56.00		96.167E+00
			56.50		93.484E+00
			57.00		90.800E+00
			57.50		87.222E+00
			58.00		83.643E+00
			58.50		79.618E+00
			59.00		75.592E+00
			59.50		71.119E+00
			60.00		66.199E+00
			60.50		61.726E+00
			61.00		56.806E+00
			61.50		52.333E+00
			62.00		47.860E+00
			62.50		43.834E+00
			63.00		39.809E+00
			63.50		36.230E+00
			64.00		33.099E+00
			64.50		30.416E+00
			65.00		28.179E+00
			65.50		25.943E+00
			66.00		24.601E+00
			66.50		23.259E+00
			67.00		22.365E+00
			67.50		21.470E+00
			68.00		20.575E+00
			68.50		20.128E+00
			69.00		19.233E+00
			69.50		18.786E+00
			70.00		18.339E+00
			70.50		17.892E+00
			71.00		17.892E+00
			71.50		17.444E+00
			72.00		16.997E+00
			72.50		16.997E+00
			73.00		16.550E+00
			73.50		16.550E+00
			74.00		16.102E+00
			74.50		16.102E+00
			75.00		15.655E+00
			75.50		15.208E+00
			76.00		15.208E+00
			76.50		15.208E+00
			77.00		14.761E+00
			77.50		14.761E+00
			78.00		14.313E+00
			78.50		14.313E+00
			79.00		13.866E+00
			79.50		13.866E+00
			80.00		13.866E+00
			80.50		13.419E+00
			81.00		13.419E+00
			81.50		13.419E+00
			82.00		12.971E+00
			82.50		12.971E+00
			83.00		12.971E+00
			83.50		12.524E+00
			84.00		12.524E+00
			84.50		12.524E+00
			85.00		12.077E+00
			85.50		12.077E+00
			86.00		12.077E+00
			86.50		11.630E+00
			87.00		11.630E+00
			87.50		11.630E+00
			88.00		11.182E+00
			88.50		11.182E+00
			89.00		11.182E+00
			89.50		11.182E+00
			90.00		11.182E+00
			90.50		10.735E+00
			91.00		10.735E+00
			91.50		10.735E+00
			92.00		10.288E+00
			92.50		10.288E+00
			93.00		10.288E+00
			93.50		10.288E+00
		END_DATA
	END_SCAN  6
	BEGIN_SCAN  7
		TASK_NAME=tba PDD Profiles
		PROGRAM=WaterTankScans
		COMMENT=Average
		MEAS_DATE=15-Mar-2022 16:18:30
		LINAC=MRIdian
		MODALITY=X
		ISOCENTER=900.00
		INPLANE_AXIS=Y
		CROSSPLANE_AXIS=X
		DEPTH_AXIS=Depth
		INPLANE_AXIS_DIR=TARGET_GUN
		CROSSPLANE_AXIS_DIR=LEFT_RIGHT
		DEPTH_AXIS_DIR=UP_DOWN
		ENERGY=6.00
		NOMINAL_DMAX=15.00
		SSD=850.00
		SCD=450.00
		WEDGE_ANGLE=0.00
		FIELD_INPLANE=100.00
		FIELD_CROSSPLANE=100.00
		FIELD_TYPE=RECTANGULAR
		GANTRY=0.00
		GANTRY_UPRIGHT_POSITION=0
		GANTRY_ROTATION=CW
		COLL_ANGLE=0.00
		COLL_OFFSET_INPLANE=0.00
		COLL_OFFSET_CROSSPLANE=0.00
		SCAN_DEVICE=BeamScan
		SCAN_DEVICE_SETUP=BARA_LEFT_RIGHT
		ELECTROMETER=BeamScan
		RANGE_FIELD=LOW
		RANGE_REFERENCE=MEDIUM
		DETECTOR=THIMBLE_CHAMBER
		DETECTOR_RADIUS=2.40
		DETECTOR_NAME=A28MR
		DETECTOR_SN=-
		DETECTOR_CALIBRATION=588000000.00
		DETECTOR_IS_CALIBRATED=0
		DETECTOR_REFERENCE=THIMBLE_CHAMBER
		DETECTOR_REFERENCE_RADIUS=2.75
		DETECTOR_REFERENCE_NAME=A28MR
		DETECTOR_REFERENCE_SN=â€”
		DETECTOR_REFERENCE_IS_CALIBRATED=0
		DETECTOR_REFERENCE_CALIBRATION=303000000.00
		DETECTOR_HV=300.0
		DETECTOR_REFERENCE_HV=300.0
		DETECTOR_ORIENTATION=HORIZONTAL
		FILTER=FFF
		SCAN_SPEED_PROFILE=10.00
		SCAN_PROF_SPEED_DEP=DEPTH
		SCAN_SPEED_PDD=0.00
		SCAN_PDD_SPEED_DEP=ENERGY
		DETECTOR_TYPE=A28MR
		REF_FIELD_DEPTH=50.00
		REF_FIELD_DEFINED=ISOCENTER
		REF_FIELD_INPLANE=100.00
		REF_FIELD_CROSSPLANE=100.00
		REF_SCAN_POSITIONS=-85.00;-84.00;-83.00;-82.00;-81.00;-80.00;-79.00;-78.00;-77.00;-76.00;-75.00;-74.00;-73.00;-72.00;-71.00;-70.00;-69.00;-68.00;-67.00;-66.00;-65.00;-64.00;-63.00;-62.00;-61.00;-60.00;-59.00;-58.00;-57.00;-56.00;-55.00;-54.00;-53.00;-52.00;-51.00;-50.00;-49.00;-48.00;-47.00;-46.00;-45.00;-44.00;-43.00;-42.00;-41.00;-40.00;-39.00;-38.00;-37.00;-36.00;-35.00;-34.00;-33.00;-32.00;-31.00;-30.00;-29.00;-28.00;-27.00;-26.00;-25.00;-24.00;-23.00;-22.00;-21.00;-20.00;-19.00;-18.00;-17.00;-16.00;-15.00;-14.00;-13.00;-12.00;-11.00;-10.00;-9.00;-8.00;-7.00;-6.00;-5.00;-4.00;-3.00;-2.00;-1.00;0.00;1.00;2.00;3.00;4.00;5.00;6.00;7.00;8.00;9.00;10.00;11.00;12.00;13.00;14.00;15.00;16.00;17.00;18.00;19.00;20.00;21.00;22.00;23.00;24.00;25.00;26.00;27.00;28.00;29.00;30.00;31.00;32.00;33.00;34.00;35.00;36.00;37.00;38.00;39.00;40.00;41.00;42.00;43.00;44.00;45.00;46.00;47.00;48.00;49.00;50.00;51.00;52.00;53.00;54.00;55.00;56.00;57.00;58.00;59.00;60.00;61.00;62.00;63.00;64.00;65.00;66.00;67.00;68.00;69.00;70.00;71.00;72.00;73.00;74.00;75.00;76.00;77.00;78.00;79.00;80.00;81.00;82.00;83.00;84.00;85.00;
		REF_OVERSCAN_FACTOR=1.00
		SCAN_CURVETYPE=CROSSPLANE_PROFILE
		SCAN_DEPTH=285.00
		SCAN_OFFAXIS_INPLANE=0.00
		SCAN_OFFAXIS_CROSSPLANE=0.00
		SCAN_ANGLE=0.00
		SCAN_DIAGONAL=NOT_DIAGONAL
		SCAN_DIRECTION=POSITIVE
		MEAS_MEDIUM=WATER
		MEAS_PRESET=MEAS_CONTINUOUS_REFERENCE_SCAN
		MEAS_TIME=0.100
		MEAS_UNIT=A.U.
		INCLINATION_ANGLE=0.00
		PRESSURE=1013.25
		TEMPERATURE=20.00
		NORM_TEMPERATURE=20.00
		CORRECTION_FACTOR=1.0000
		EXPECTED_MAX_DOSE_RATE=3.00
		EPOM_DEPTH_SHIFT=0.2
		EPOM_MODE=SHIFT_PROTOCOL
		CORRECTIONS=SMOOTHED_CORR;CAX_CORR;INTERPOLATED_CORR;SYMMETRY_CORR;ADD_CURVES_CORR;MODIFIED_CORR;
		BEGIN_DATA
			-95.00		8.9458E+00
			-94.50		8.9458E+00
			-94.00		8.9458E+00
			-93.50		8.9458E+00
			-93.00		9.3931E+00
			-92.50		9.3931E+00
			-92.00		9.3931E+00
			-91.50		9.3931E+00
			-91.00		9.8404E+00
			-90.50		9.8404E+00
			-90.00		9.8404E+00
			-89.50		9.8404E+00
			-89.00		9.8404E+00
			-88.50		10.288E+00
			-88.00		10.288E+00
			-87.50		10.288E+00
			-87.00		10.288E+00
			-86.50		10.735E+00
			-86.00		10.735E+00
			-85.50		10.735E+00
			-85.00		11.182E+00
			-84.50		11.182E+00
			-84.00		11.182E+00
			-83.50		11.182E+00
			-83.00		11.630E+00
			-82.50		11.630E+00
			-82.00		11.630E+00
			-81.50		11.630E+00
			-81.00		12.077E+00
			-80.50		12.077E+00
			-80.00		12.077E+00
			-79.50		12.524E+00
			-79.00		12.524E+00
			-78.50		12.524E+00
			-78.00		12.971E+00
			-77.50		12.971E+00
			-77.00		13.419E+00
			-76.50		13.419E+00
			-76.00		13.419E+00
			-75.50		13.866E+00
			-75.00		13.866E+00
			-74.50		14.313E+00
			-74.00		14.313E+00
			-73.50		14.761E+00
			-73.00		14.761E+00
			-72.50		15.208E+00
			-72.00		15.655E+00
			-71.50		15.655E+00
			-71.00		16.102E+00
			-70.50		16.550E+00
			-70.00		16.997E+00
			-69.50		17.892E+00
			-69.00		18.339E+00
			-68.50		19.233E+00
			-68.00		20.128E+00
			-67.50		21.470E+00
			-67.00		22.812E+00
			-66.50		24.601E+00
			-66.00		26.837E+00
			-65.50		29.074E+00
			-65.00		31.758E+00
			-64.50		34.889E+00
			-64.00		38.020E+00
			-63.50		41.598E+00
			-63.00		45.176E+00
			-62.50		48.755E+00
			-62.00		52.333E+00
			-61.50		56.359E+00
			-61.00		59.937E+00
			-60.50		63.515E+00
			-60.00		66.646E+00
			-59.50		69.777E+00
			-59.00		72.461E+00
			-58.50		74.697E+00
			-58.00		76.934E+00
			-57.50		78.723E+00
			-57.00		80.512E+00
			-56.50		81.854E+00
			-56.00		83.196E+00
			-55.50		84.091E+00
			-55.00		84.985E+00
			-54.50		85.880E+00
			-54.00		86.327E+00
			-53.50		87.222E+00
			-53.00		87.669E+00
			-52.50		88.116E+00
			-52.00		88.563E+00
			-51.50		89.011E+00
			-51.00		89.458E+00
			-50.50		89.905E+00
			-50.00		90.353E+00
			-49.50		90.800E+00
			-49.00		91.247E+00
			-48.50		91.247E+00
			-48.00		91.694E+00
			-47.50		92.142E+00
			-47.00		92.142E+00
			-46.50		92.589E+00
			-46.00		93.036E+00
			-45.50		93.036E+00
			-45.00		93.484E+00
			-44.50		93.484E+00
			-44.00		93.931E+00
			-43.50		94.378E+00
			-43.00		94.378E+00
			-42.50		94.825E+00
			-42.00		94.825E+00
			-41.50		95.273E+00
			-41.00		95.273E+00
			-40.50		95.720E+00
			-40.00		95.720E+00
			-39.50		96.167E+00
			-39.00		96.167E+00
			-38.50		96.615E+00
			-38.00		96.615E+00
			-37.50		97.062E+00
			-37.00		97.062E+00
			-36.50		97.509E+00
			-36.00		97.509E+00
			-35.50		97.957E+00
			-35.00		97.957E+00
			-34.50		97.957E+00
			-34.00		98.404E+00
			-33.50		98.404E+00
			-33.00		98.851E+00
			-32.50		98.851E+00
			-32.00		99.298E+00
			-31.50		99.298E+00
			-31.00		99.298E+00
			-30.50		99.746E+00
			-30.00		99.746E+00
			-29.50		100.19E+00
			-29.00		100.19E+00
			-28.50		100.19E+00
			-28.00		100.64E+00
			-27.50		100.64E+00
			-27.00		100.64E+00
			-26.50		101.09E+00
			-26.00		101.09E+00
			-25.50		101.09E+00
			-25.00		101.53E+00
			-24.50		101.53E+00
			-24.00		101.53E+00
			-23.50		101.53E+00
			-23.00		101.98E+00
			-22.50		101.98E+00
			-22.00		101.98E+00
			-21.50		102.43E+00
			-21.00		102.43E+00
			-20.50		102.43E+00
			-20.00		102.43E+00
			-19.50		102.88E+00
			-19.00		102.88E+00
			-18.50		102.88E+00
			-18.00		102.88E+00
			-17.50		103.32E+00
			-17.00		103.32E+00
			-16.50		103.32E+00
			-16.00		103.32E+00
			-15.50		103.32E+00
			-15.00		103.77E+00
			-14.50		103.77E+00
			-14.00		103.77E+00
			-13.50		103.77E+00
			-13.00		103.77E+00
			-12.50		103.77E+00
			-12.00		103.77E+00
			-11.50		104.22E+00
			-11.00		104.22E+00
			-10.50		104.22E+00
			-10.00		104.22E+00
			-9.50		104.22E+00
			-9.00		104.22E+00
			-8.50		104.67E+00
			-8.00		104.67E+00
			-7.50		104.67E+00
			-7.00		104.67E+00
			-6.50		104.67E+00
			-6.00		104.67E+00
			-5.50		104.67E+00
			-5.00		104.67E+00
			-4.50		104.67E+00
			-4.00		104.67E+00
			-3.50		104.67E+00
			-3.00		104.67E+00
			-2.50		105.11E+00
			-2.00		105.11E+00
			-1.50		105.11E+00
			-1.00		105.11E+00
			-0.50		105.11E+00
			0.00		105.11E+00
			0.50		105.11E+00
			1.00		105.11E+00
			1.50		105.11E+00
			2.00		105.11E+00
			2.50		105.11E+00
			3.00		104.67E+00
			3.50		104.67E+00
			4.00		104.67E+00
			4.50		104.67E+00
			5.00		104.67E+00
			5.50		104.67E+00
			6.00		104.67E+00
			6.50		104.67E+00
			7.00		104.67E+00
			7.50		104.67E+00
			8.00		104.67E+00
			8.50		104.67E+00
			9.00		104.22E+00
			9.50		104.22E+00
			10.00		104.22E+00
			10.50		104.22E+00
			11.00		104.22E+00
			11.50		104.22E+00
			12.00		103.77E+00
			12.50		103.77E+00
			13.00		103.77E+00
			13.50		103.77E+00
			14.00		103.77E+00
			14.50		103.77E+00
			15.00		103.77E+00
			15.50		103.32E+00
			16.00		103.32E+00
			16.50		103.32E+00
			17.00		103.32E+00
			17.50		103.32E+00
			18.00		102.88E+00
			18.50		102.88E+00
			19.00		102.88E+00
			19.50		102.88E+00
			20.00		102.43E+00
			20.50		102.43E+00
			21.00		102.43E+00
			21.50		102.43E+00
			22.00		101.98E+00
			22.50		101.98E+00
			23.00		101.98E+00
			23.50		101.53E+00
			24.00		101.53E+00
			24.50		101.53E+00
			25.00		101.53E+00
			25.50		101.09E+00
			26.00		101.09E+00
			26.50		101.09E+00
			27.00		100.64E+00
			27.50		100.64E+00
			28.00		100.64E+00
			28.50		100.19E+00
			29.00		100.19E+00
			29.50		100.19E+00
			30.00		99.746E+00
			30.50		99.746E+00
			31.00		99.298E+00
			31.50		99.298E+00
			32.00		99.298E+00
			32.50		98.851E+00
			33.00		98.851E+00
			33.50		98.404E+00
			34.00		98.404E+00
			34.50		97.957E+00
			35.00		97.957E+00
			35.50		97.957E+00
			36.00		97.509E+00
			36.50		97.509E+00
			37.00		97.062E+00
			37.50		97.062E+00
			38.00		96.615E+00
			38.50		96.615E+00
			39.00		96.167E+00
			39.50		96.167E+00
			40.00		95.720E+00
			40.50		95.720E+00
			41.00		95.273E+00
			41.50		95.273E+00
			42.00		94.825E+00
			42.50		94.825E+00
			43.00		94.378E+00
			43.50		94.378E+00
			44.00		93.931E+00
			44.50		93.484E+00
			45.00		93.484E+00
			45.50		93.036E+00
			46.00		93.036E+00
			46.50		92.589E+00
			47.00		92.142E+00
			47.50		92.142E+00
			48.00		91.694E+00
			48.50		91.247E+00
			49.00		91.247E+00
			49.50		90.800E+00
			50.00		90.353E+00
			50.50		89.905E+00
			51.00		89.458E+00
			51.50		89.011E+00
			52.00		88.563E+00
			52.50		88.116E+00
			53.00		87.669E+00
			53.50		87.222E+00
			54.00		86.327E+00
			54.50		85.880E+00
			55.00		84.985E+00
			55.50		84.091E+00
			56.00		83.196E+00
			56.50		81.854E+00
			57.00		80.512E+00
			57.50		78.723E+00
			58.00		76.934E+00
			58.50		74.697E+00
			59.00		72.461E+00
			59.50		69.777E+00
			60.00		66.646E+00
			60.50		63.515E+00
			61.00		59.937E+00
			61.50		56.359E+00
			62.00		52.333E+00
			62.50		48.755E+00
			63.00		45.176E+00
			63.50		41.598E+00
			64.00		38.020E+00
			64.50		34.889E+00
			65.00		31.758E+00
			65.50		29.074E+00
			66.00		26.837E+00
			66.50		24.601E+00
			67.00		22.812E+00
			67.50		21.470E+00
			68.00		20.128E+00
			68.50		19.233E+00
			69.00		18.339E+00
			69.50		17.892E+00
			70.00		16.997E+00
			70.50		16.550E+00
			71.00		16.102E+00
			71.50		15.655E+00
			72.00		15.655E+00
			72.50		15.208E+00
			73.00		14.761E+00
			73.50		14.761E+00
			74.00		14.313E+00
			74.50		14.313E+00
			75.00		13.866E+00
			75.50		13.866E+00
			76.00		13.419E+00
			76.50		13.419E+00
			77.00		13.419E+00
			77.50		12.971E+00
			78.00		12.971E+00
			78.50		12.524E+00
			79.00		12.524E+00
			79.50		12.524E+00
			80.00		12.077E+00
			80.50		12.077E+00
			81.00		12.077E+00
			81.50		11.630E+00
			82.00		11.630E+00
			82.50		11.630E+00
			83.00		11.630E+00
			83.50		11.182E+00
			84.00		11.182E+00
			84.50		11.182E+00
			85.00		11.182E+00
			85.50		10.735E+00
			86.00		10.735E+00
			86.50		10.735E+00
			87.00		10.288E+00
			87.50		10.288E+00
			88.00		10.288E+00
			88.50		10.288E+00
			89.00		9.8404E+00
			89.50		9.8404E+00
			90.00		9.8404E+00
			90.50		9.8404E+00
			91.00		9.8404E+00
			91.50		9.3931E+00
			92.00		9.3931E+00
			92.50		9.3931E+00
			93.00		9.3931E+00
			93.50		8.9458E+00
			94.00		8.9458E+00
			94.50		8.9458E+00
			95.00		8.9458E+00
		END_DATA
	END_SCAN  7
END_SCAN_DATA
