BEGIN_SCAN_DATA
	FORMAT=CC-Export V1.9                  
	FILE_CREATION_DATE=29-Jul-2022 17:04:56
	LAST_MODIFIED=29-Jul-2022 17:04:56
	BEGIN_SCAN  1
		TASK_NAME=tba PDD Profiles
		PROGRAM=WaterTankScans
		COMMENT=PDD + 5x X
		MEAS_DATE=08-Feb-2021 10:10:54
		LINAC=TRUEBEAMSN4791
		MODALITY=X
		ISOCENTER=1000.00
		INPLANE_AXIS=Y
		CROSSPLANE_AXIS=X
		DEPTH_AXIS=Depth
		INPLANE_AXIS_DIR=TARGET_GUN
		CROSSPLANE_AXIS_DIR=LEFT_RIGHT
		DEPTH_AXIS_DIR=UP_DOWN
		ENERGY=6.00
		NOMINAL_DMAX=15.00
		SSD=900.00
		SCD=450.00
		WEDGE_ANGLE=0.00
		FIELD_INPLANE=200.00
		FIELD_CROSSPLANE=200.00
		FIELD_TYPE=RECTANGULAR
		GANTRY=0.00
		GANTRY_UPRIGHT_POSITION=0
		GANTRY_ROTATION=CW
		COLL_ANGLE=0.00
		COLL_OFFSET_INPLANE=0.00
		COLL_OFFSET_CROSSPLANE=0.00
		SCAN_DEVICE=BeamScan
		SCAN_DEVICE_SETUP=BARA_LEFT_RIGHT
		ELECTROMETER=BeamScan
		RANGE_FIELD=LOW
		RANGE_REFERENCE=MEDIUM
		DETECTOR=THIMBLE_CHAMBER
		DETECTOR_SUBCODE=SEMIFLEX
		DETECTOR_RADIUS=2.40
		DETECTOR_NAME=PTW 31021 Semiflex 3D (1)
		DETECTOR_SN=142316
		DETECTOR_CALIBRATION=588000000.00
		DETECTOR_IS_CALIBRATED=1
		DETECTOR_REFERENCE=THIMBLE_CHAMBER
		DETECTOR_REFERENCE_SUBCODE=SEMIFLEX
		DETECTOR_REFERENCE_RADIUS=2.75
		DETECTOR_REFERENCE_NAME=PTW 31010 Semiflex (1)
		DETECTOR_REFERENCE_SN=Ã¢â‚¬â€
		DETECTOR_REFERENCE_IS_CALIBRATED=0
		DETECTOR_REFERENCE_CALIBRATION=303000000.00
		DETECTOR_HV=400.0
		DETECTOR_REFERENCE_HV=400.0
		DETECTOR_ORIENTATION=HORIZONTAL
		FILTER=FF
		SCAN_SPEED_PROFILE=12.50
		SCAN_PROF_SPEED_DEP=DEPTH
		SCAN_SPEED_PDD=12.50
		SCAN_PDD_SPEED_DEP=ENERGY
		DETECTOR_TYPE=T31021
		REF_FIELD_DEPTH=100.00
		REF_FIELD_DEFINED=ISOCENTER
		REF_FIELD_INPLANE=100.00
		REF_FIELD_CROSSPLANE=100.00
		REF_SCAN_POSITIONS=-85.00;-84.00;-83.00;-82.00;-81.00;-80.00;-79.00;-78.00;-77.00;-76.00;-75.00;-74.00;-73.00;-72.00;-71.00;-70.00;-69.00;-68.00;-67.00;-66.00;-65.00;-64.00;-63.00;-62.00;-61.00;-60.00;-59.00;-58.00;-57.00;-56.00;-55.00;-54.00;-53.00;-52.00;-51.00;-50.00;-49.00;-48.00;-47.00;-46.00;-45.00;-44.00;-43.00;-42.00;-41.00;-40.00;-39.00;-38.00;-37.00;-36.00;-35.00;-34.00;-33.00;-32.00;-31.00;-30.00;-29.00;-28.00;-27.00;-26.00;-25.00;-24.00;-23.00;-22.00;-21.00;-20.00;-19.00;-18.00;-17.00;-16.00;-15.00;-14.00;-13.00;-12.00;-11.00;-10.00;-9.00;-8.00;-7.00;-6.00;-5.00;-4.00;-3.00;-2.00;-1.00;0.00;1.00;2.00;3.00;4.00;5.00;6.00;7.00;8.00;9.00;10.00;11.00;12.00;13.00;14.00;15.00;16.00;17.00;18.00;19.00;20.00;21.00;22.00;23.00;24.00;25.00;26.00;27.00;28.00;29.00;30.00;31.00;32.00;33.00;34.00;35.00;36.00;37.00;38.00;39.00;40.00;41.00;42.00;43.00;44.00;45.00;46.00;47.00;48.00;49.00;50.00;51.00;52.00;53.00;54.00;55.00;56.00;57.00;58.00;59.00;60.00;61.00;62.00;63.00;64.00;65.00;66.00;67.00;68.00;69.00;70.00;71.00;72.00;73.00;74.00;75.00;76.00;77.00;78.00;79.00;80.00;81.00;82.00;83.00;84.00;85.00;
		REF_OVERSCAN_FACTOR=1.00
		SCAN_CURVETYPE=CROSSPLANE_PROFILE
		SCAN_DEPTH=15.00
		SCAN_OFFAXIS_INPLANE=0.00
		SCAN_OFFAXIS_CROSSPLANE=0.00
		SCAN_ANGLE=0.00
		SCAN_DIAGONAL=NOT_DIAGONAL
		SCAN_DIRECTION=POSITIVE
		MEAS_MEDIUM=WATER
		MEAS_PRESET=MEAS_CONTINUOUS_REFERENCE_SCAN
		MEAS_TIME=0.080
		MEAS_UNIT=A.U.
		INCLINATION_ANGLE=0.00
		PRESSURE=1013.25
		TEMPERATURE=20.00
		NORM_TEMPERATURE=20.00
		CORRECTION_FACTOR=1.0000
		EXPECTED_MAX_DOSE_RATE=3.00
		EPOM_DEPTH_SHIFT=0.2
		EPOM_MODE=SHIFT_PROTOCOL
		CORRECTIONS=SMOOTHED_CORR;CAX_CORR;SYMMETRY_CORR;INTERPOLATED_CORR;
		BEGIN_DATA
			-124.00		53.273E-03
			-122.00		56.667E-03
			-120.00		59.767E-03
			-118.00		63.112E-03
			-116.00		67.287E-03
			-114.00		71.276E-03
			-112.00		75.837E-03
			-110.00		80.945E-03
			-108.00		86.445E-03
			-106.00		92.441E-03
			-104.00		98.959E-03
			-102.00		108.05E-03
			-100.00		121.30E-03
			-98.00		143.38E-03
			-96.00		196.06E-03
			-94.00		372.83E-03
			-92.00		733.31E-03
			-90.00		1.1349E+00
			-88.00		1.3708E+00
			-86.00		1.4447E+00
			-84.00		1.4702E+00
			-82.00		1.4844E+00
			-80.00		1.4918E+00
			-78.00		1.4964E+00
			-76.00		1.5001E+00
			-74.00		1.5026E+00
			-72.00		1.5041E+00
			-70.00		1.5055E+00
			-68.00		1.5070E+00
			-66.00		1.5083E+00
			-64.00		1.5087E+00
			-62.00		1.5098E+00
			-60.00		1.5090E+00
			-58.00		1.5101E+00
			-56.00		1.5092E+00
			-54.00		1.5089E+00
			-52.00		1.5078E+00
			-50.00		1.5085E+00
			-48.00		1.5092E+00
			-46.00		1.5092E+00
			-44.00		1.5075E+00
			-42.00		1.5055E+00
			-40.00		1.5037E+00
			-38.00		1.5020E+00
			-36.00		1.4999E+00
			-34.00		1.4973E+00
			-32.00		1.4959E+00
			-30.00		1.4934E+00
			-28.00		1.4915E+00
			-26.00		1.4913E+00
			-24.00		1.4917E+00
			-22.00		1.4911E+00
			-20.00		1.4906E+00
			-18.00		1.4894E+00
			-16.00		1.4884E+00
			-14.00		1.4860E+00
			-12.00		1.4844E+00
			-10.00		1.4834E+00
			-8.00		1.4823E+00
			-6.00		1.4809E+00
			-4.00		1.4796E+00
			-2.00		1.4789E+00
			0.00		1.4791E+00
			2.00		1.4789E+00
			4.00		1.4796E+00
			6.00		1.4809E+00
			8.00		1.4823E+00
			10.00		1.4834E+00
			12.00		1.4844E+00
			14.00		1.4860E+00
			16.00		1.4884E+00
			18.00		1.4894E+00
			20.00		1.4906E+00
			22.00		1.4911E+00
			24.00		1.4917E+00
			26.00		1.4913E+00
			28.00		1.4915E+00
			30.00		1.4934E+00
			32.00		1.4959E+00
			34.00		1.4973E+00
			36.00		1.4999E+00
			38.00		1.5020E+00
			40.00		1.5037E+00
			42.00		1.5055E+00
			44.00		1.5075E+00
			46.00		1.5092E+00
			48.00		1.5092E+00
			50.00		1.5085E+00
			52.00		1.5078E+00
			54.00		1.5089E+00
			56.00		1.5092E+00
			58.00		1.5101E+00
			60.00		1.5090E+00
			62.00		1.5098E+00
			64.00		1.5087E+00
			66.00		1.5083E+00
			68.00		1.5070E+00
			70.00		1.5055E+00
			72.00		1.5041E+00
			74.00		1.5026E+00
			76.00		1.5001E+00
			78.00		1.4964E+00
			80.00		1.4918E+00
			82.00		1.4844E+00
			84.00		1.4702E+00
			86.00		1.4447E+00
			88.00		1.3708E+00
			90.00		1.1349E+00
			92.00		733.31E-03
			94.00		372.83E-03
			96.00		196.06E-03
			98.00		143.38E-03
			100.00		121.30E-03
			102.00		108.05E-03
			104.00		98.959E-03
			106.00		92.441E-03
			108.00		86.445E-03
			110.00		80.945E-03
			112.00		75.837E-03
			114.00		71.276E-03
			116.00		67.287E-03
			118.00		63.112E-03
			120.00		59.767E-03
			122.00		56.667E-03
			124.00		53.273E-03
		END_DATA
	END_SCAN  1
	BEGIN_SCAN  2
		TASK_NAME=tba PDD Profiles
		PROGRAM=WaterTankScans
		COMMENT=PDD + 5x X
		MEAS_DATE=08-Feb-2021 10:11:20
		LINAC=TRUEBEAMSN4791
		MODALITY=X
		ISOCENTER=1000.00
		INPLANE_AXIS=Y
		CROSSPLANE_AXIS=X
		DEPTH_AXIS=Depth
		INPLANE_AXIS_DIR=TARGET_GUN
		CROSSPLANE_AXIS_DIR=LEFT_RIGHT
		DEPTH_AXIS_DIR=UP_DOWN
		ENERGY=6.00
		NOMINAL_DMAX=15.00
		SSD=900.00
		SCD=450.00
		WEDGE_ANGLE=0.00
		FIELD_INPLANE=200.00
		FIELD_CROSSPLANE=200.00
		FIELD_TYPE=RECTANGULAR
		GANTRY=0.00
		GANTRY_UPRIGHT_POSITION=0
		GANTRY_ROTATION=CW
		COLL_ANGLE=0.00
		COLL_OFFSET_INPLANE=0.00
		COLL_OFFSET_CROSSPLANE=0.00
		SCAN_DEVICE=BeamScan
		SCAN_DEVICE_SETUP=BARA_LEFT_RIGHT
		ELECTROMETER=BeamScan
		RANGE_FIELD=LOW
		RANGE_REFERENCE=MEDIUM
		DETECTOR=THIMBLE_CHAMBER
		DETECTOR_SUBCODE=SEMIFLEX
		DETECTOR_RADIUS=2.40
		DETECTOR_NAME=PTW 31021 Semiflex 3D (1)
		DETECTOR_SN=142316
		DETECTOR_CALIBRATION=588000000.00
		DETECTOR_IS_CALIBRATED=1
		DETECTOR_REFERENCE=THIMBLE_CHAMBER
		DETECTOR_REFERENCE_SUBCODE=SEMIFLEX
		DETECTOR_REFERENCE_RADIUS=2.75
		DETECTOR_REFERENCE_NAME=PTW 31010 Semiflex (1)
		DETECTOR_REFERENCE_SN=Ã¢â‚¬â€
		DETECTOR_REFERENCE_IS_CALIBRATED=0
		DETECTOR_REFERENCE_CALIBRATION=303000000.00
		DETECTOR_HV=400.0
		DETECTOR_REFERENCE_HV=400.0
		DETECTOR_ORIENTATION=HORIZONTAL
		FILTER=FF
		SCAN_SPEED_PROFILE=12.50
		SCAN_PROF_SPEED_DEP=DEPTH
		SCAN_SPEED_PDD=12.50
		SCAN_PDD_SPEED_DEP=ENERGY
		DETECTOR_TYPE=T31021
		REF_FIELD_DEPTH=100.00
		REF_FIELD_DEFINED=ISOCENTER
		REF_FIELD_INPLANE=100.00
		REF_FIELD_CROSSPLANE=100.00
		REF_SCAN_POSITIONS=-85.00;-84.00;-83.00;-82.00;-81.00;-80.00;-79.00;-78.00;-77.00;-76.00;-75.00;-74.00;-73.00;-72.00;-71.00;-70.00;-69.00;-68.00;-67.00;-66.00;-65.00;-64.00;-63.00;-62.00;-61.00;-60.00;-59.00;-58.00;-57.00;-56.00;-55.00;-54.00;-53.00;-52.00;-51.00;-50.00;-49.00;-48.00;-47.00;-46.00;-45.00;-44.00;-43.00;-42.00;-41.00;-40.00;-39.00;-38.00;-37.00;-36.00;-35.00;-34.00;-33.00;-32.00;-31.00;-30.00;-29.00;-28.00;-27.00;-26.00;-25.00;-24.00;-23.00;-22.00;-21.00;-20.00;-19.00;-18.00;-17.00;-16.00;-15.00;-14.00;-13.00;-12.00;-11.00;-10.00;-9.00;-8.00;-7.00;-6.00;-5.00;-4.00;-3.00;-2.00;-1.00;0.00;1.00;2.00;3.00;4.00;5.00;6.00;7.00;8.00;9.00;10.00;11.00;12.00;13.00;14.00;15.00;16.00;17.00;18.00;19.00;20.00;21.00;22.00;23.00;24.00;25.00;26.00;27.00;28.00;29.00;30.00;31.00;32.00;33.00;34.00;35.00;36.00;37.00;38.00;39.00;40.00;41.00;42.00;43.00;44.00;45.00;46.00;47.00;48.00;49.00;50.00;51.00;52.00;53.00;54.00;55.00;56.00;57.00;58.00;59.00;60.00;61.00;62.00;63.00;64.00;65.00;66.00;67.00;68.00;69.00;70.00;71.00;72.00;73.00;74.00;75.00;76.00;77.00;78.00;79.00;80.00;81.00;82.00;83.00;84.00;85.00;
		REF_OVERSCAN_FACTOR=1.00
		SCAN_CURVETYPE=CROSSPLANE_PROFILE
		SCAN_DEPTH=50.00
		SCAN_OFFAXIS_INPLANE=0.00
		SCAN_OFFAXIS_CROSSPLANE=0.00
		SCAN_ANGLE=0.00
		SCAN_DIAGONAL=NOT_DIAGONAL
		SCAN_DIRECTION=NEGATIVE
		MEAS_MEDIUM=WATER
		MEAS_PRESET=MEAS_CONTINUOUS_REFERENCE_SCAN
		MEAS_TIME=0.080
		MEAS_UNIT=A.U.
		INCLINATION_ANGLE=0.00
		PRESSURE=1013.25
		TEMPERATURE=20.00
		NORM_TEMPERATURE=20.00
		CORRECTION_FACTOR=1.0000
		EXPECTED_MAX_DOSE_RATE=3.00
		EPOM_DEPTH_SHIFT=0.2
		EPOM_MODE=SHIFT_PROTOCOL
		CORRECTIONS=SMOOTHED_CORR;CAX_CORR;SYMMETRY_CORR;INTERPOLATED_CORR;
		BEGIN_DATA
			-128.00		62.123E-03
			-126.00		65.592E-03
			-124.00		69.009E-03
			-122.00		73.288E-03
			-120.00		77.690E-03
			-118.00		82.093E-03
			-116.00		87.255E-03
			-114.00		92.927E-03
			-112.00		99.682E-03
			-110.00		106.06E-03
			-108.00		114.35E-03
			-106.00		124.00E-03
			-104.00		136.84E-03
			-102.00		156.81E-03
			-100.00		194.33E-03
			-98.00		303.10E-03
			-96.00		555.56E-03
			-94.00		877.92E-03
			-92.00		1.1051E+00
			-90.00		1.1924E+00
			-88.00		1.2246E+00
			-86.00		1.2418E+00
			-84.00		1.2532E+00
			-82.00		1.2605E+00
			-80.00		1.2666E+00
			-78.00		1.2717E+00
			-76.00		1.2768E+00
			-74.00		1.2808E+00
			-72.00		1.2835E+00
			-70.00		1.2871E+00
			-68.00		1.2887E+00
			-66.00		1.2894E+00
			-64.00		1.2900E+00
			-62.00		1.2929E+00
			-60.00		1.2954E+00
			-58.00		1.2954E+00
			-56.00		1.2967E+00
			-54.00		1.2971E+00
			-52.00		1.2978E+00
			-50.00		1.2982E+00
			-48.00		1.2985E+00
			-46.00		1.2974E+00
			-44.00		1.2963E+00
			-42.00		1.2947E+00
			-40.00		1.2943E+00
			-38.00		1.2932E+00
			-36.00		1.2921E+00
			-34.00		1.2918E+00
			-32.00		1.2913E+00
			-30.00		1.2912E+00
			-28.00		1.2901E+00
			-26.00		1.2909E+00
			-24.00		1.2915E+00
			-22.00		1.2905E+00
			-20.00		1.2894E+00
			-18.00		1.2886E+00
			-16.00		1.2880E+00
			-14.00		1.2882E+00
			-12.00		1.2867E+00
			-10.00		1.2848E+00
			-8.00		1.2838E+00
			-6.00		1.2823E+00
			-4.00		1.2814E+00
			-2.00		1.2811E+00
			0.00		1.2810E+00
			2.00		1.2811E+00
			4.00		1.2814E+00
			6.00		1.2823E+00
			8.00		1.2838E+00
			10.00		1.2848E+00
			12.00		1.2867E+00
			14.00		1.2882E+00
			16.00		1.2880E+00
			18.00		1.2886E+00
			20.00		1.2894E+00
			22.00		1.2905E+00
			24.00		1.2915E+00
			26.00		1.2909E+00
			28.00		1.2901E+00
			30.00		1.2912E+00
			32.00		1.2913E+00
			34.00		1.2918E+00
			36.00		1.2921E+00
			38.00		1.2932E+00
			40.00		1.2943E+00
			42.00		1.2947E+00
			44.00		1.2963E+00
			46.00		1.2974E+00
			48.00		1.2985E+00
			50.00		1.2982E+00
			52.00		1.2978E+00
			54.00		1.2971E+00
			56.00		1.2967E+00
			58.00		1.2954E+00
			60.00		1.2954E+00
			62.00		1.2929E+00
			64.00		1.2900E+00
			66.00		1.2894E+00
			68.00		1.2887E+00
			70.00		1.2871E+00
			72.00		1.2835E+00
			74.00		1.2808E+00
			76.00		1.2768E+00
			78.00		1.2717E+00
			80.00		1.2666E+00
			82.00		1.2605E+00
			84.00		1.2532E+00
			86.00		1.2418E+00
			88.00		1.2246E+00
			90.00		1.1924E+00
			92.00		1.1051E+00
			94.00		877.92E-03
			96.00		555.56E-03
			98.00		303.10E-03
			100.00		194.33E-03
			102.00		156.81E-03
			104.00		136.84E-03
			106.00		124.00E-03
			108.00		114.35E-03
			110.00		106.06E-03
			112.00		99.682E-03
			114.00		92.927E-03
			116.00		87.255E-03
			118.00		82.093E-03
			120.00		77.690E-03
			122.00		73.288E-03
			124.00		69.009E-03
			126.00		65.592E-03
			128.00		62.123E-03
		END_DATA
	END_SCAN  2
	BEGIN_SCAN  3
		TASK_NAME=tba PDD Profiles
		PROGRAM=WaterTankScans
		COMMENT=PDD + 5x X
		MEAS_DATE=08-Feb-2021 10:11:44
		LINAC=TRUEBEAMSN4791
		MODALITY=X
		ISOCENTER=1000.00
		INPLANE_AXIS=Y
		CROSSPLANE_AXIS=X
		DEPTH_AXIS=Depth
		INPLANE_AXIS_DIR=TARGET_GUN
		CROSSPLANE_AXIS_DIR=LEFT_RIGHT
		DEPTH_AXIS_DIR=UP_DOWN
		ENERGY=6.00
		NOMINAL_DMAX=15.00
		SSD=900.00
		SCD=450.00
		WEDGE_ANGLE=0.00
		FIELD_INPLANE=200.00
		FIELD_CROSSPLANE=200.00
		FIELD_TYPE=RECTANGULAR
		GANTRY=0.00
		GANTRY_UPRIGHT_POSITION=0
		GANTRY_ROTATION=CW
		COLL_ANGLE=0.00
		COLL_OFFSET_INPLANE=0.00
		COLL_OFFSET_CROSSPLANE=0.00
		SCAN_DEVICE=BeamScan
		SCAN_DEVICE_SETUP=BARA_LEFT_RIGHT
		ELECTROMETER=BeamScan
		RANGE_FIELD=LOW
		RANGE_REFERENCE=MEDIUM
		DETECTOR=THIMBLE_CHAMBER
		DETECTOR_SUBCODE=SEMIFLEX
		DETECTOR_RADIUS=2.40
		DETECTOR_NAME=PTW 31021 Semiflex 3D (1)
		DETECTOR_SN=142316
		DETECTOR_CALIBRATION=588000000.00
		DETECTOR_IS_CALIBRATED=1
		DETECTOR_REFERENCE=THIMBLE_CHAMBER
		DETECTOR_REFERENCE_SUBCODE=SEMIFLEX
		DETECTOR_REFERENCE_RADIUS=2.75
		DETECTOR_REFERENCE_NAME=PTW 31010 Semiflex (1)
		DETECTOR_REFERENCE_SN=Ã¢â‚¬â€
		DETECTOR_REFERENCE_IS_CALIBRATED=0
		DETECTOR_REFERENCE_CALIBRATION=303000000.00
		DETECTOR_HV=400.0
		DETECTOR_REFERENCE_HV=400.0
		DETECTOR_ORIENTATION=HORIZONTAL
		FILTER=FF
		SCAN_SPEED_PROFILE=12.50
		SCAN_PROF_SPEED_DEP=DEPTH
		SCAN_SPEED_PDD=12.50
		SCAN_PDD_SPEED_DEP=ENERGY
		DETECTOR_TYPE=T31021
		REF_FIELD_DEPTH=100.00
		REF_FIELD_DEFINED=ISOCENTER
		REF_FIELD_INPLANE=100.00
		REF_FIELD_CROSSPLANE=100.00
		REF_SCAN_POSITIONS=-85.00;-84.00;-83.00;-82.00;-81.00;-80.00;-79.00;-78.00;-77.00;-76.00;-75.00;-74.00;-73.00;-72.00;-71.00;-70.00;-69.00;-68.00;-67.00;-66.00;-65.00;-64.00;-63.00;-62.00;-61.00;-60.00;-59.00;-58.00;-57.00;-56.00;-55.00;-54.00;-53.00;-52.00;-51.00;-50.00;-49.00;-48.00;-47.00;-46.00;-45.00;-44.00;-43.00;-42.00;-41.00;-40.00;-39.00;-38.00;-37.00;-36.00;-35.00;-34.00;-33.00;-32.00;-31.00;-30.00;-29.00;-28.00;-27.00;-26.00;-25.00;-24.00;-23.00;-22.00;-21.00;-20.00;-19.00;-18.00;-17.00;-16.00;-15.00;-14.00;-13.00;-12.00;-11.00;-10.00;-9.00;-8.00;-7.00;-6.00;-5.00;-4.00;-3.00;-2.00;-1.00;0.00;1.00;2.00;3.00;4.00;5.00;6.00;7.00;8.00;9.00;10.00;11.00;12.00;13.00;14.00;15.00;16.00;17.00;18.00;19.00;20.00;21.00;22.00;23.00;24.00;25.00;26.00;27.00;28.00;29.00;30.00;31.00;32.00;33.00;34.00;35.00;36.00;37.00;38.00;39.00;40.00;41.00;42.00;43.00;44.00;45.00;46.00;47.00;48.00;49.00;50.00;51.00;52.00;53.00;54.00;55.00;56.00;57.00;58.00;59.00;60.00;61.00;62.00;63.00;64.00;65.00;66.00;67.00;68.00;69.00;70.00;71.00;72.00;73.00;74.00;75.00;76.00;77.00;78.00;79.00;80.00;81.00;82.00;83.00;84.00;85.00;
		REF_OVERSCAN_FACTOR=1.00
		SCAN_CURVETYPE=CROSSPLANE_PROFILE
		SCAN_DEPTH=100.00
		SCAN_OFFAXIS_INPLANE=0.00
		SCAN_OFFAXIS_CROSSPLANE=0.00
		SCAN_ANGLE=0.00
		SCAN_DIAGONAL=NOT_DIAGONAL
		SCAN_DIRECTION=POSITIVE
		MEAS_MEDIUM=WATER
		MEAS_PRESET=MEAS_CONTINUOUS_REFERENCE_SCAN
		MEAS_TIME=0.080
		MEAS_UNIT=A.U.
		INCLINATION_ANGLE=0.00
		PRESSURE=1013.25
		TEMPERATURE=20.00
		NORM_TEMPERATURE=20.00
		CORRECTION_FACTOR=1.0000
		EXPECTED_MAX_DOSE_RATE=3.00
		EPOM_DEPTH_SHIFT=0.2
		EPOM_MODE=SHIFT_PROTOCOL
		CORRECTIONS=SMOOTHED_CORR;CAX_CORR;SYMMETRY_CORR;INTERPOLATED_CORR;
		BEGIN_DATA
			-134.00		70.285E-03
			-132.00		73.946E-03
			-130.00		77.644E-03
			-128.00		81.553E-03
			-126.00		85.381E-03
			-124.00		90.452E-03
			-122.00		95.569E-03
			-120.00		100.56E-03
			-118.00		106.85E-03
			-116.00		113.11E-03
			-114.00		120.20E-03
			-112.00		127.89E-03
			-110.00		138.02E-03
			-108.00		150.79E-03
			-106.00		172.26E-03
			-104.00		220.06E-03
			-102.00		347.87E-03
			-100.00		556.91E-03
			-98.00		757.59E-03
			-96.00		867.55E-03
			-94.00		908.29E-03
			-92.00		926.75E-03
			-90.00		939.33E-03
			-88.00		948.68E-03
			-86.00		955.81E-03
			-84.00		961.80E-03
			-82.00		968.34E-03
			-80.00		973.55E-03
			-78.00		977.50E-03
			-76.00		980.67E-03
			-74.00		984.34E-03
			-72.00		987.86E-03
			-70.00		991.19E-03
			-68.00		993.82E-03
			-66.00		996.31E-03
			-64.00		998.07E-03
			-62.00		999.97E-03
			-60.00		1.0029E+00
			-58.00		1.0041E+00
			-56.00		1.0052E+00
			-54.00		1.0062E+00
			-52.00		1.0073E+00
			-50.00		1.0082E+00
			-48.00		1.0087E+00
			-46.00		1.0101E+00
			-44.00		1.0102E+00
			-42.00		1.0099E+00
			-40.00		1.0099E+00
			-38.00		1.0086E+00
			-36.00		1.0091E+00
			-34.00		1.0093E+00
			-32.00		1.0093E+00
			-30.00		1.0100E+00
			-28.00		1.0106E+00
			-26.00		1.0117E+00
			-24.00		1.0115E+00
			-22.00		1.0111E+00
			-20.00		1.0115E+00
			-18.00		1.0104E+00
			-16.00		1.0095E+00
			-14.00		1.0090E+00
			-12.00		1.0085E+00
			-10.00		1.0085E+00
			-8.00		1.0083E+00
			-6.00		1.0078E+00
			-4.00		1.0068E+00
			-2.00		1.0056E+00
			0.00		1.0052E+00
			2.00		1.0056E+00
			4.00		1.0068E+00
			6.00		1.0078E+00
			8.00		1.0083E+00
			10.00		1.0085E+00
			12.00		1.0085E+00
			14.00		1.0090E+00
			16.00		1.0095E+00
			18.00		1.0104E+00
			20.00		1.0115E+00
			22.00		1.0111E+00
			24.00		1.0115E+00
			26.00		1.0117E+00
			28.00		1.0106E+00
			30.00		1.0100E+00
			32.00		1.0093E+00
			34.00		1.0093E+00
			36.00		1.0091E+00
			38.00		1.0086E+00
			40.00		1.0099E+00
			42.00		1.0099E+00
			44.00		1.0102E+00
			46.00		1.0101E+00
			48.00		1.0087E+00
			50.00		1.0082E+00
			52.00		1.0073E+00
			54.00		1.0062E+00
			56.00		1.0052E+00
			58.00		1.0041E+00
			60.00		1.0029E+00
			62.00		999.97E-03
			64.00		998.07E-03
			66.00		996.31E-03
			68.00		993.82E-03
			70.00		991.19E-03
			72.00		987.86E-03
			74.00		984.34E-03
			76.00		980.67E-03
			78.00		977.50E-03
			80.00		973.55E-03
			82.00		968.34E-03
			84.00		961.80E-03
			86.00		955.81E-03
			88.00		948.68E-03
			90.00		939.33E-03
			92.00		926.75E-03
			94.00		908.29E-03
			96.00		867.55E-03
			98.00		757.59E-03
			100.00		556.91E-03
			102.00		347.87E-03
			104.00		220.06E-03
			106.00		172.26E-03
			108.00		150.79E-03
			110.00		138.02E-03
			112.00		127.89E-03
			114.00		120.20E-03
			116.00		113.11E-03
			118.00		106.85E-03
			120.00		100.56E-03
			122.00		95.569E-03
			124.00		90.452E-03
			126.00		85.381E-03
			128.00		81.553E-03
			130.00		77.644E-03
			132.00		73.946E-03
			134.00		70.285E-03
		END_DATA
	END_SCAN  3
	BEGIN_SCAN  4
		TASK_NAME=tba PDD Profiles
		PROGRAM=WaterTankScans
		COMMENT=PDD + 5x X
		MEAS_DATE=08-Feb-2021 10:12:10
		LINAC=TRUEBEAMSN4791
		MODALITY=X
		ISOCENTER=1000.00
		INPLANE_AXIS=Y
		CROSSPLANE_AXIS=X
		DEPTH_AXIS=Depth
		INPLANE_AXIS_DIR=TARGET_GUN
		CROSSPLANE_AXIS_DIR=LEFT_RIGHT
		DEPTH_AXIS_DIR=UP_DOWN
		ENERGY=6.00
		NOMINAL_DMAX=15.00
		SSD=900.00
		SCD=450.00
		WEDGE_ANGLE=0.00
		FIELD_INPLANE=200.00
		FIELD_CROSSPLANE=200.00
		FIELD_TYPE=RECTANGULAR
		GANTRY=0.00
		GANTRY_UPRIGHT_POSITION=0
		GANTRY_ROTATION=CW
		COLL_ANGLE=0.00
		COLL_OFFSET_INPLANE=0.00
		COLL_OFFSET_CROSSPLANE=0.00
		SCAN_DEVICE=BeamScan
		SCAN_DEVICE_SETUP=BARA_LEFT_RIGHT
		ELECTROMETER=BeamScan
		RANGE_FIELD=LOW
		RANGE_REFERENCE=MEDIUM
		DETECTOR=THIMBLE_CHAMBER
		DETECTOR_SUBCODE=SEMIFLEX
		DETECTOR_RADIUS=2.40
		DETECTOR_NAME=PTW 31021 Semiflex 3D (1)
		DETECTOR_SN=142316
		DETECTOR_CALIBRATION=588000000.00
		DETECTOR_IS_CALIBRATED=1
		DETECTOR_REFERENCE=THIMBLE_CHAMBER
		DETECTOR_REFERENCE_SUBCODE=SEMIFLEX
		DETECTOR_REFERENCE_RADIUS=2.75
		DETECTOR_REFERENCE_NAME=PTW 31010 Semiflex (1)
		DETECTOR_REFERENCE_SN=Ã¢â‚¬â€
		DETECTOR_REFERENCE_IS_CALIBRATED=0
		DETECTOR_REFERENCE_CALIBRATION=303000000.00
		DETECTOR_HV=400.0
		DETECTOR_REFERENCE_HV=400.0
		DETECTOR_ORIENTATION=HORIZONTAL
		FILTER=FF
		SCAN_SPEED_PROFILE=10.00
		SCAN_PROF_SPEED_DEP=DEPTH
		SCAN_SPEED_PDD=12.50
		SCAN_PDD_SPEED_DEP=ENERGY
		DETECTOR_TYPE=T31021
		REF_FIELD_DEPTH=100.00
		REF_FIELD_DEFINED=ISOCENTER
		REF_FIELD_INPLANE=100.00
		REF_FIELD_CROSSPLANE=100.00
		REF_SCAN_POSITIONS=-85.00;-84.00;-83.00;-82.00;-81.00;-80.00;-79.00;-78.00;-77.00;-76.00;-75.00;-74.00;-73.00;-72.00;-71.00;-70.00;-69.00;-68.00;-67.00;-66.00;-65.00;-64.00;-63.00;-62.00;-61.00;-60.00;-59.00;-58.00;-57.00;-56.00;-55.00;-54.00;-53.00;-52.00;-51.00;-50.00;-49.00;-48.00;-47.00;-46.00;-45.00;-44.00;-43.00;-42.00;-41.00;-40.00;-39.00;-38.00;-37.00;-36.00;-35.00;-34.00;-33.00;-32.00;-31.00;-30.00;-29.00;-28.00;-27.00;-26.00;-25.00;-24.00;-23.00;-22.00;-21.00;-20.00;-19.00;-18.00;-17.00;-16.00;-15.00;-14.00;-13.00;-12.00;-11.00;-10.00;-9.00;-8.00;-7.00;-6.00;-5.00;-4.00;-3.00;-2.00;-1.00;0.00;1.00;2.00;3.00;4.00;5.00;6.00;7.00;8.00;9.00;10.00;11.00;12.00;13.00;14.00;15.00;16.00;17.00;18.00;19.00;20.00;21.00;22.00;23.00;24.00;25.00;26.00;27.00;28.00;29.00;30.00;31.00;32.00;33.00;34.00;35.00;36.00;37.00;38.00;39.00;40.00;41.00;42.00;43.00;44.00;45.00;46.00;47.00;48.00;49.00;50.00;51.00;52.00;53.00;54.00;55.00;56.00;57.00;58.00;59.00;60.00;61.00;62.00;63.00;64.00;65.00;66.00;67.00;68.00;69.00;70.00;71.00;72.00;73.00;74.00;75.00;76.00;77.00;78.00;79.00;80.00;81.00;82.00;83.00;84.00;85.00;
		REF_OVERSCAN_FACTOR=1.00
		SCAN_CURVETYPE=CROSSPLANE_PROFILE
		SCAN_DEPTH=200.00
		SCAN_OFFAXIS_INPLANE=0.00
		SCAN_OFFAXIS_CROSSPLANE=0.00
		SCAN_ANGLE=0.00
		SCAN_DIAGONAL=NOT_DIAGONAL
		SCAN_DIRECTION=NEGATIVE
		MEAS_MEDIUM=WATER
		MEAS_PRESET=MEAS_CONTINUOUS_REFERENCE_SCAN
		MEAS_TIME=0.100
		MEAS_UNIT=A.U.
		INCLINATION_ANGLE=0.00
		PRESSURE=1013.25
		TEMPERATURE=20.00
		NORM_TEMPERATURE=20.00
		CORRECTION_FACTOR=1.0000
		EXPECTED_MAX_DOSE_RATE=3.00
		EPOM_DEPTH_SHIFT=0.2
		EPOM_MODE=SHIFT_PROTOCOL
		CORRECTIONS=SMOOTHED_CORR;CAX_CORR;SYMMETRY_CORR;INTERPOLATED_CORR;MODIFIED_CORR;
		BEGIN_DATA
			-148.00		60.492E-03
			-146.00		63.487E-03
			-144.00		65.882E-03
			-142.00		68.278E-03
			-140.00		71.273E-03
			-138.00		74.267E-03
			-136.00		77.262E-03
			-134.00		80.856E-03
			-132.00		84.449E-03
			-130.00		87.444E-03
			-128.00		91.636E-03
			-126.00		95.829E-03
			-124.00		100.02E-03
			-122.00		105.41E-03
			-120.00		110.80E-03
			-118.00		119.19E-03
			-116.00		131.76E-03
			-114.00		158.72E-03
			-112.00		224.00E-03
			-110.00		326.42E-03
			-108.00		425.24E-03
			-106.00		483.34E-03
			-104.00		506.69E-03
			-102.00		519.87E-03
			-100.00		527.66E-03
			-98.00		533.05E-03
			-96.00		538.44E-03
			-94.00		542.63E-03
			-92.00		546.82E-03
			-90.00		551.02E-03
			-88.00		554.61E-03
			-86.00		557.60E-03
			-84.00		561.20E-03
			-82.00		564.19E-03
			-80.00		566.59E-03
			-78.00		568.98E-03
			-76.00		571.98E-03
			-74.00		574.97E-03
			-72.00		577.37E-03
			-70.00		579.17E-03
			-68.00		580.36E-03
			-66.00		581.56E-03
			-64.00		582.76E-03
			-62.00		585.15E-03
			-60.00		586.95E-03
			-58.00		589.35E-03
			-56.00		589.35E-03
			-54.00		589.95E-03
			-52.00		591.14E-03
			-50.00		592.94E-03
			-48.00		592.94E-03
			-46.00		594.14E-03
			-44.00		594.74E-03
			-42.00		595.34E-03
			-40.00		595.94E-03
			-38.00		595.94E-03
			-36.00		596.53E-03
			-34.00		597.13E-03
			-32.00		597.73E-03
			-30.00		598.33E-03
			-28.00		599.53E-03
			-26.00		599.53E-03
			-24.00		600.13E-03
			-22.00		600.73E-03
			-20.00		600.73E-03
			-18.00		600.73E-03
			-16.00		600.73E-03
			-14.00		600.73E-03
			-12.00		600.13E-03
			-10.00		600.13E-03
			-8.00		600.13E-03
			-6.00		599.53E-03
			-4.00		598.93E-03
			-2.00		598.93E-03
			0.00		598.93E-03
			2.00		598.93E-03
			4.00		598.93E-03
			6.00		599.53E-03
			8.00		600.13E-03
			10.00		600.13E-03
			12.00		600.13E-03
			14.00		600.73E-03
			16.00		600.73E-03
			18.00		600.73E-03
			20.00		600.73E-03
			22.00		600.73E-03
			24.00		600.13E-03
			26.00		599.53E-03
			28.00		599.53E-03
			30.00		598.33E-03
			32.00		597.73E-03
			34.00		597.13E-03
			36.00		596.53E-03
			38.00		595.94E-03
			40.00		595.94E-03
			42.00		595.34E-03
			44.00		594.74E-03
			46.00		594.14E-03
			48.00		592.94E-03
			50.00		592.94E-03
			52.00		591.14E-03
			54.00		589.95E-03
			56.00		589.35E-03
			58.00		589.35E-03
			60.00		586.95E-03
			62.00		585.15E-03
			64.00		582.76E-03
			66.00		581.56E-03
			68.00		580.36E-03
			70.00		579.17E-03
			72.00		577.37E-03
			74.00		574.97E-03
			76.00		571.98E-03
			78.00		568.98E-03
			80.00		566.59E-03
			82.00		564.19E-03
			84.00		561.20E-03
			86.00		557.60E-03
			88.00		554.61E-03
			90.00		551.02E-03
			92.00		546.82E-03
			94.00		542.63E-03
			96.00		538.44E-03
			98.00		533.05E-03
			100.00		527.66E-03
			102.00		519.87E-03
			104.00		506.69E-03
			106.00		483.34E-03
			108.00		425.24E-03
			110.00		326.42E-03
			112.00		224.00E-03
			114.00		158.72E-03
			116.00		131.76E-03
			118.00		119.19E-03
			120.00		110.80E-03
			122.00		105.41E-03
			124.00		100.02E-03
			126.00		95.829E-03
			128.00		91.636E-03
			130.00		87.444E-03
			132.00		84.449E-03
			134.00		80.856E-03
			136.00		77.262E-03
			138.00		74.267E-03
			140.00		71.273E-03
			142.00		68.278E-03
			144.00		65.882E-03
			146.00		63.487E-03
			148.00		60.492E-03
		END_DATA
	END_SCAN  4
	BEGIN_SCAN  5
		TASK_NAME=tba PDD Profiles
		PROGRAM=WaterTankScans
		COMMENT=PDD + 5x X
		MEAS_DATE=08-Feb-2021 10:12:45
		LINAC=TRUEBEAMSN4791
		MODALITY=X
		ISOCENTER=1000.00
		INPLANE_AXIS=Y
		CROSSPLANE_AXIS=X
		DEPTH_AXIS=Depth
		INPLANE_AXIS_DIR=TARGET_GUN
		CROSSPLANE_AXIS_DIR=LEFT_RIGHT
		DEPTH_AXIS_DIR=UP_DOWN
		ENERGY=6.00
		NOMINAL_DMAX=15.00
		SSD=900.00
		SCD=450.00
		WEDGE_ANGLE=0.00
		FIELD_INPLANE=200.00
		FIELD_CROSSPLANE=200.00
		FIELD_TYPE=RECTANGULAR
		GANTRY=0.00
		GANTRY_UPRIGHT_POSITION=0
		GANTRY_ROTATION=CW
		COLL_ANGLE=0.00
		COLL_OFFSET_INPLANE=0.00
		COLL_OFFSET_CROSSPLANE=0.00
		SCAN_DEVICE=BeamScan
		SCAN_DEVICE_SETUP=BARA_LEFT_RIGHT
		ELECTROMETER=BeamScan
		RANGE_FIELD=LOW
		RANGE_REFERENCE=MEDIUM
		DETECTOR=THIMBLE_CHAMBER
		DETECTOR_SUBCODE=SEMIFLEX
		DETECTOR_RADIUS=2.40
		DETECTOR_NAME=PTW 31021 Semiflex 3D (1)
		DETECTOR_SN=142316
		DETECTOR_CALIBRATION=588000000.00
		DETECTOR_IS_CALIBRATED=1
		DETECTOR_REFERENCE=THIMBLE_CHAMBER
		DETECTOR_REFERENCE_SUBCODE=SEMIFLEX
		DETECTOR_REFERENCE_RADIUS=2.75
		DETECTOR_REFERENCE_NAME=PTW 31010 Semiflex (1)
		DETECTOR_REFERENCE_SN=Ã¢â‚¬â€
		DETECTOR_REFERENCE_IS_CALIBRATED=0
		DETECTOR_REFERENCE_CALIBRATION=303000000.00
		DETECTOR_HV=400.0
		DETECTOR_REFERENCE_HV=400.0
		DETECTOR_ORIENTATION=HORIZONTAL
		FILTER=FF
		SCAN_SPEED_PROFILE=10.00
		SCAN_PROF_SPEED_DEP=DEPTH
		SCAN_SPEED_PDD=12.50
		SCAN_PDD_SPEED_DEP=ENERGY
		DETECTOR_TYPE=T31021
		REF_FIELD_DEPTH=100.00
		REF_FIELD_DEFINED=ISOCENTER
		REF_FIELD_INPLANE=100.00
		REF_FIELD_CROSSPLANE=100.00
		REF_SCAN_POSITIONS=-85.00;-84.00;-83.00;-82.00;-81.00;-80.00;-79.00;-78.00;-77.00;-76.00;-75.00;-74.00;-73.00;-72.00;-71.00;-70.00;-69.00;-68.00;-67.00;-66.00;-65.00;-64.00;-63.00;-62.00;-61.00;-60.00;-59.00;-58.00;-57.00;-56.00;-55.00;-54.00;-53.00;-52.00;-51.00;-50.00;-49.00;-48.00;-47.00;-46.00;-45.00;-44.00;-43.00;-42.00;-41.00;-40.00;-39.00;-38.00;-37.00;-36.00;-35.00;-34.00;-33.00;-32.00;-31.00;-30.00;-29.00;-28.00;-27.00;-26.00;-25.00;-24.00;-23.00;-22.00;-21.00;-20.00;-19.00;-18.00;-17.00;-16.00;-15.00;-14.00;-13.00;-12.00;-11.00;-10.00;-9.00;-8.00;-7.00;-6.00;-5.00;-4.00;-3.00;-2.00;-1.00;0.00;1.00;2.00;3.00;4.00;5.00;6.00;7.00;8.00;9.00;10.00;11.00;12.00;13.00;14.00;15.00;16.00;17.00;18.00;19.00;20.00;21.00;22.00;23.00;24.00;25.00;26.00;27.00;28.00;29.00;30.00;31.00;32.00;33.00;34.00;35.00;36.00;37.00;38.00;39.00;40.00;41.00;42.00;43.00;44.00;45.00;46.00;47.00;48.00;49.00;50.00;51.00;52.00;53.00;54.00;55.00;56.00;57.00;58.00;59.00;60.00;61.00;62.00;63.00;64.00;65.00;66.00;67.00;68.00;69.00;70.00;71.00;72.00;73.00;74.00;75.00;76.00;77.00;78.00;79.00;80.00;81.00;82.00;83.00;84.00;85.00;
		REF_OVERSCAN_FACTOR=1.00
		SCAN_CURVETYPE=CROSSPLANE_PROFILE
		SCAN_DEPTH=300.00
		SCAN_OFFAXIS_INPLANE=0.00
		SCAN_OFFAXIS_CROSSPLANE=0.00
		SCAN_ANGLE=0.00
		SCAN_DIAGONAL=NOT_DIAGONAL
		SCAN_DIRECTION=POSITIVE
		MEAS_MEDIUM=WATER
		MEAS_PRESET=MEAS_CONTINUOUS_REFERENCE_SCAN
		MEAS_TIME=0.100
		MEAS_UNIT=A.U.
		INCLINATION_ANGLE=0.00
		PRESSURE=1013.25
		TEMPERATURE=20.00
		NORM_TEMPERATURE=20.00
		CORRECTION_FACTOR=1.0000
		EXPECTED_MAX_DOSE_RATE=3.00
		EPOM_DEPTH_SHIFT=0.2
		EPOM_MODE=SHIFT_PROTOCOL
		CORRECTIONS=SMOOTHED_CORR;CAX_CORR;SYMMETRY_CORR;INTERPOLATED_CORR;MODIFIED_CORR;
		BEGIN_DATA
			-160.00		44.841E-03
			-158.00		46.253E-03
			-156.00		47.666E-03
			-154.00		49.431E-03
			-152.00		50.844E-03
			-150.00		52.962E-03
			-148.00		54.727E-03
			-146.00		56.846E-03
			-144.00		58.258E-03
			-142.00		60.730E-03
			-140.00		63.201E-03
			-138.00		65.320E-03
			-136.00		67.085E-03
			-134.00		70.263E-03
			-132.00		73.088E-03
			-130.00		76.618E-03
			-128.00		80.855E-03
			-126.00		89.329E-03
			-124.00		104.51E-03
			-122.00		138.76E-03
			-120.00		191.72E-03
			-118.00		242.21E-03
			-116.00		272.93E-03
			-114.00		286.70E-03
			-112.00		294.12E-03
			-110.00		299.06E-03
			-108.00		302.94E-03
			-106.00		306.12E-03
			-104.00		308.95E-03
			-102.00		311.06E-03
			-100.00		313.89E-03
			-98.00		316.36E-03
			-96.00		318.13E-03
			-94.00		320.60E-03
			-92.00		322.36E-03
			-90.00		323.77E-03
			-88.00		325.54E-03
			-86.00		327.66E-03
			-84.00		329.42E-03
			-82.00		330.84E-03
			-80.00		331.90E-03
			-78.00		333.31E-03
			-76.00		335.07E-03
			-74.00		336.13E-03
			-72.00		337.19E-03
			-70.00		338.96E-03
			-68.00		340.37E-03
			-66.00		341.08E-03
			-64.00		342.13E-03
			-62.00		343.55E-03
			-60.00		344.61E-03
			-58.00		345.31E-03
			-56.00		345.67E-03
			-54.00		346.02E-03
			-52.00		346.72E-03
			-50.00		347.43E-03
			-48.00		347.78E-03
			-46.00		348.49E-03
			-44.00		348.49E-03
			-42.00		349.20E-03
			-40.00		349.90E-03
			-38.00		350.26E-03
			-36.00		350.61E-03
			-34.00		350.96E-03
			-32.00		351.31E-03
			-30.00		352.02E-03
			-28.00		352.37E-03
			-26.00		352.37E-03
			-24.00		352.73E-03
			-22.00		352.73E-03
			-20.00		353.08E-03
			-18.00		353.43E-03
			-16.00		353.08E-03
			-14.00		353.43E-03
			-12.00		353.43E-03
			-10.00		353.43E-03
			-8.00		353.43E-03
			-6.00		353.08E-03
			-4.00		353.08E-03
			-2.00		353.08E-03
			0.00		353.08E-03
			2.00		353.08E-03
			4.00		353.08E-03
			6.00		353.08E-03
			8.00		353.43E-03
			10.00		353.43E-03
			12.00		353.43E-03
			14.00		353.43E-03
			16.00		353.08E-03
			18.00		353.43E-03
			20.00		353.08E-03
			22.00		352.73E-03
			24.00		352.73E-03
			26.00		352.37E-03
			28.00		352.37E-03
			30.00		352.02E-03
			32.00		351.31E-03
			34.00		350.96E-03
			36.00		350.61E-03
			38.00		350.26E-03
			40.00		349.90E-03
			42.00		349.20E-03
			44.00		348.49E-03
			46.00		348.49E-03
			48.00		347.78E-03
			50.00		347.43E-03
			52.00		346.72E-03
			54.00		346.02E-03
			56.00		345.67E-03
			58.00		345.31E-03
			60.00		344.61E-03
			62.00		343.55E-03
			64.00		342.13E-03
			66.00		341.08E-03
			68.00		340.37E-03
			70.00		338.96E-03
			72.00		337.19E-03
			74.00		336.13E-03
			76.00		335.07E-03
			78.00		333.31E-03
			80.00		331.90E-03
			82.00		330.84E-03
			84.00		329.42E-03
			86.00		327.66E-03
			88.00		325.54E-03
			90.00		323.77E-03
			92.00		322.36E-03
			94.00		320.60E-03
			96.00		318.13E-03
			98.00		316.36E-03
			100.00		313.89E-03
			102.00		311.06E-03
			104.00		308.95E-03
			106.00		306.12E-03
			108.00		302.94E-03
			110.00		299.06E-03
			112.00		294.12E-03
			114.00		286.70E-03
			116.00		272.93E-03
			118.00		242.21E-03
			120.00		191.72E-03
			122.00		138.76E-03
			124.00		104.51E-03
			126.00		89.329E-03
			128.00		80.855E-03
			130.00		76.618E-03
			132.00		73.088E-03
			134.00		70.263E-03
			136.00		67.085E-03
			138.00		65.320E-03
			140.00		63.201E-03
			142.00		60.730E-03
			144.00		58.258E-03
			146.00		56.846E-03
			148.00		54.727E-03
			150.00		52.962E-03
			152.00		50.844E-03
			154.00		49.431E-03
			156.00		47.666E-03
			158.00		46.253E-03
			160.00		44.841E-03
		END_DATA
	END_SCAN  5
END_SCAN_DATA
