BEGIN_SCAN_DATA
	FORMAT=CC-Export V1.9                  
	FILE_CREATION_DATE=17-Oct-2022 15:39:24
	LAST_MODIFIED=17-Oct-2022 15:39:24
	BEGIN_SCAN  1
		TASK_NAME=tba PDD Profiles
		PROGRAM=WaterTankScans
		COMMENT=FBF_SanPietro
		MEAS_DATE=08-Feb-2021 09:38:10
		LINAC=MRIdian
		MODALITY=X
		ISOCENTER=900.00
		INPLANE_AXIS=Y
		CROSSPLANE_AXIS=X
		DEPTH_AXIS=Depth
		INPLANE_AXIS_DIR=TARGET_GUN
		CROSSPLANE_AXIS_DIR=LEFT_RIGHT
		DEPTH_AXIS_DIR=UP_DOWN
		ENERGY=6.00
		NOMINAL_DMAX=15.00
		SSD=850.00
		SCD=450.00
		WEDGE_ANGLE=0.00
		FIELD_INPLANE=149.40
		FIELD_CROSSPLANE=149.40
		FIELD_TYPE=RECTANGULAR
		GANTRY=0.00
		GANTRY_UPRIGHT_POSITION=0
		GANTRY_ROTATION=CW
		COLL_ANGLE=0.00
		COLL_OFFSET_INPLANE=0.00
		COLL_OFFSET_CROSSPLANE=0.00
		SCAN_DEVICE=BeamScan
		SCAN_DEVICE_SETUP=BARA_LEFT_RIGHT
		ELECTROMETER=BeamScan
		RANGE_FIELD=LOW
		RANGE_REFERENCE=MEDIUM
		DETECTOR=THIMBLE_CHAMBER
		DETECTOR_RADIUS=2.40
		DETECTOR_NAME=A28MR
		DETECTOR_SN=-
		DETECTOR_CALIBRATION=588000000.00
		DETECTOR_IS_CALIBRATED=0
		DETECTOR_REFERENCE=THIMBLE_CHAMBER
		DETECTOR_REFERENCE_RADIUS=2.75
		DETECTOR_REFERENCE_NAME=A28MR
		DETECTOR_REFERENCE_SN=ÃƒÂ¢Ã¢â€šÂ¬Ã¢â‚¬
		DETECTOR_REFERENCE_IS_CALIBRATED=0
		DETECTOR_REFERENCE_CALIBRATION=303000000.00
		DETECTOR_HV=300.0
		DETECTOR_REFERENCE_HV=300.0
		DETECTOR_ORIENTATION=HORIZONTAL
		FILTER=FFF
		SCAN_SPEED_PROFILE=10.00
		SCAN_PROF_SPEED_DEP=DEPTH
		SCAN_SPEED_PDD=0.00
		SCAN_PDD_SPEED_DEP=ENERGY
		DETECTOR_TYPE=A28MR
		REF_FIELD_DEPTH=220.00
		REF_FIELD_DEFINED=ISOCENTER
		REF_FIELD_INPLANE=100.00
		REF_FIELD_CROSSPLANE=100.00
		REF_SCAN_POSITIONS=-85.00;-84.00;-83.00;-82.00;-81.00;-80.00;-79.00;-78.00;-77.00;-76.00;-75.00;-74.00;-73.00;-72.00;-71.00;-70.00;-69.00;-68.00;-67.00;-66.00;-65.00;-64.00;-63.00;-62.00;-61.00;-60.00;-59.00;-58.00;-57.00;-56.00;-55.00;-54.00;-53.00;-52.00;-51.00;-50.00;-49.00;-48.00;-47.00;-46.00;-45.00;-44.00;-43.00;-42.00;-41.00;-40.00;-39.00;-38.00;-37.00;-36.00;-35.00;-34.00;-33.00;-32.00;-31.00;-30.00;-29.00;-28.00;-27.00;-26.00;-25.00;-24.00;-23.00;-22.00;-21.00;-20.00;-19.00;-18.00;-17.00;-16.00;-15.00;-14.00;-13.00;-12.00;-11.00;-10.00;-9.00;-8.00;-7.00;-6.00;-5.00;-4.00;-3.00;-2.00;-1.00;0.00;1.00;2.00;3.00;4.00;5.00;6.00;7.00;8.00;9.00;10.00;11.00;12.00;13.00;14.00;15.00;16.00;17.00;18.00;19.00;20.00;21.00;22.00;23.00;24.00;25.00;26.00;27.00;28.00;29.00;30.00;31.00;32.00;33.00;34.00;35.00;36.00;37.00;38.00;39.00;40.00;41.00;42.00;43.00;44.00;45.00;46.00;47.00;48.00;49.00;50.00;51.00;52.00;53.00;54.00;55.00;56.00;57.00;58.00;59.00;60.00;61.00;62.00;63.00;64.00;65.00;66.00;67.00;68.00;69.00;70.00;71.00;72.00;73.00;74.00;75.00;76.00;77.00;78.00;79.00;80.00;81.00;82.00;83.00;84.00;85.00;
		REF_OVERSCAN_FACTOR=1.00
		SCAN_CURVETYPE=CROSSPLANE_PROFILE
		SCAN_DEPTH=20.00
		SCAN_OFFAXIS_INPLANE=0.00
		SCAN_OFFAXIS_CROSSPLANE=0.00
		SCAN_ANGLE=0.00
		SCAN_DIAGONAL=NOT_DIAGONAL
		SCAN_DIRECTION=POSITIVE
		MEAS_MEDIUM=WATER
		MEAS_PRESET=MEAS_CONTINUOUS_REFERENCE_SCAN
		MEAS_TIME=0.100
		MEAS_UNIT=A.U.
		INCLINATION_ANGLE=0.00
		PRESSURE=1013.25
		TEMPERATURE=20.00
		NORM_TEMPERATURE=20.00
		CORRECTION_FACTOR=1.0000
		EXPECTED_MAX_DOSE_RATE=3.00
		EPOM_DEPTH_SHIFT=0.2
		EPOM_MODE=SHIFT_PROTOCOL
		CORRECTIONS=CAX_CORR;SMOOTHED_CORR;INTERPOLATED_CORR;
		BEGIN_DATA
			-119.50		8.0098E+00
			-119.00		8.0963E+00
			-118.50		8.1151E+00
			-118.00		8.1190E+00
			-117.50		8.2003E+00
			-117.00		8.3010E+00
			-116.50		8.3566E+00
			-116.00		8.3995E+00
			-115.50		8.5193E+00
			-115.00		8.6609E+00
			-114.50		8.7372E+00
			-114.00		8.7928E+00
			-113.50		8.8672E+00
			-113.00		8.9475E+00
			-112.50		9.0599E+00
			-112.00		9.1812E+00
			-111.50		9.2950E+00
			-111.00		9.4068E+00
			-110.50		9.5402E+00
			-110.00		9.6797E+00
			-109.50		9.7659E+00
			-109.00		9.8405E+00
			-108.50		9.9301E+00
			-108.00		10.024E+00
			-107.50		10.108E+00
			-107.00		10.189E+00
			-106.50		10.346E+00
			-106.00		10.522E+00
			-105.50		10.631E+00
			-105.00		10.725E+00
			-104.50		10.845E+00
			-104.00		10.974E+00
			-103.50		11.085E+00
			-103.00		11.190E+00
			-102.50		11.385E+00
			-102.00		11.606E+00
			-101.50		11.716E+00
			-101.00		11.799E+00
			-100.50		11.933E+00
			-100.00		12.081E+00
			-99.50		12.214E+00
			-99.00		12.342E+00
			-98.50		12.547E+00
			-98.00		12.771E+00
			-97.50		12.975E+00
			-97.00		13.173E+00
			-96.50		13.353E+00
			-96.00		13.528E+00
			-95.50		13.691E+00
			-95.00		13.850E+00
			-94.50		14.042E+00
			-94.00		14.243E+00
			-93.50		14.411E+00
			-93.00		14.572E+00
			-92.50		14.824E+00
			-92.00		15.103E+00
			-91.50		15.413E+00
			-91.00		15.730E+00
			-90.50		15.958E+00
			-90.00		16.167E+00
			-89.50		16.357E+00
			-89.00		16.542E+00
			-88.50		16.927E+00
			-88.00		17.357E+00
			-87.50		17.730E+00
			-87.00		18.087E+00
			-86.50		18.517E+00
			-86.00		18.966E+00
			-85.50		19.440E+00
			-85.00		19.918E+00
			-84.50		20.415E+00
			-84.00		20.916E+00
			-83.50		21.549E+00
			-83.00		22.216E+00
			-82.50		23.104E+00
			-82.00		24.054E+00
			-81.50		24.977E+00
			-81.00		25.894E+00
			-80.50		27.225E+00
			-80.00		28.659E+00
			-79.50		30.364E+00
			-79.00		32.147E+00
			-78.50		34.523E+00
			-78.00		37.047E+00
			-77.50		40.647E+00
			-77.00		44.517E+00
			-76.50		50.663E+00
			-76.00		57.451E+00
			-75.50		67.824E+00
			-75.00		79.093E+00
			-74.50		94.793E+00
			-74.00		111.89E+00
			-73.50		132.32E+00
			-73.00		153.47E+00
			-72.50		176.00E+00
			-72.00		198.97E+00
			-71.50		222.10E+00
			-71.00		245.28E+00
			-70.50		266.55E+00
			-70.00		287.35E+00
			-69.50		305.40E+00
			-69.00		322.67E+00
			-68.50		336.61E+00
			-68.00		349.61E+00
			-67.50		358.39E+00
			-67.00		365.98E+00
			-66.50		371.63E+00
			-66.00		376.79E+00
			-65.50		380.13E+00
			-65.00		382.97E+00
			-64.50		384.98E+00
			-64.00		386.82E+00
			-63.50		388.80E+00
			-63.00		390.82E+00
			-62.50		392.53E+00
			-62.00		394.15E+00
			-61.50		395.65E+00
			-61.00		397.13E+00
			-60.50		398.49E+00
			-60.00		399.81E+00
			-59.50		401.10E+00
			-59.00		402.39E+00
			-58.50		403.68E+00
			-58.00		404.97E+00
			-57.50		406.21E+00
			-57.00		407.44E+00
			-56.50		408.59E+00
			-56.00		409.71E+00
			-55.50		410.75E+00
			-55.00		411.76E+00
			-54.50		412.70E+00
			-54.00		413.62E+00
			-53.50		414.57E+00
			-53.00		415.54E+00
			-52.50		416.61E+00
			-52.00		417.70E+00
			-51.50		418.86E+00
			-51.00		420.04E+00
			-50.50		421.19E+00
			-50.00		422.32E+00
			-49.50		423.35E+00
			-49.00		424.36E+00
			-48.50		425.34E+00
			-48.00		426.32E+00
			-47.50		427.41E+00
			-47.00		428.52E+00
			-46.50		429.64E+00
			-46.00		430.75E+00
			-45.50		431.73E+00
			-45.00		432.67E+00
			-44.50		433.53E+00
			-44.00		434.37E+00
			-43.50		435.27E+00
			-43.00		436.17E+00
			-42.50		437.11E+00
			-42.00		438.07E+00
			-41.50		438.98E+00
			-41.00		439.88E+00
			-40.50		440.72E+00
			-40.00		441.53E+00
			-39.50		442.36E+00
			-39.00		443.20E+00
			-38.50		444.10E+00
			-38.00		445.02E+00
			-37.50		445.97E+00
			-37.00		446.92E+00
			-36.50		447.84E+00
			-36.00		448.76E+00
			-35.50		449.60E+00
			-35.00		450.42E+00
			-34.50		451.20E+00
			-34.00		451.98E+00
			-33.50		452.84E+00
			-33.00		453.73E+00
			-32.50		454.65E+00
			-32.00		455.59E+00
			-31.50		456.42E+00
			-31.00		457.21E+00
			-30.50		457.95E+00
			-30.00		458.67E+00
			-29.50		459.49E+00
			-29.00		460.34E+00
			-28.50		461.24E+00
			-28.00		462.15E+00
			-27.50		462.98E+00
			-27.00		463.80E+00
			-26.50		464.57E+00
			-26.00		465.32E+00
			-25.50		466.04E+00
			-25.00		466.75E+00
			-24.50		467.44E+00
			-24.00		468.11E+00
			-23.50		468.79E+00
			-23.00		469.47E+00
			-22.50		470.15E+00
			-22.00		470.84E+00
			-21.50		471.47E+00
			-21.00		472.09E+00
			-20.50		472.66E+00
			-20.00		473.23E+00
			-19.50		473.83E+00
			-19.00		474.43E+00
			-18.50		475.02E+00
			-18.00		475.62E+00
			-17.50		476.15E+00
			-17.00		476.67E+00
			-16.50		477.20E+00
			-16.00		477.73E+00
			-15.50		478.33E+00
			-15.00		478.94E+00
			-14.50		479.50E+00
			-14.00		480.03E+00
			-13.50		480.43E+00
			-13.00		480.80E+00
			-12.50		481.11E+00
			-12.00		481.41E+00
			-11.50		481.73E+00
			-11.00		482.06E+00
			-10.50		482.41E+00
			-10.00		482.77E+00
			-9.50		483.13E+00
			-9.00		483.49E+00
			-8.50		483.84E+00
			-8.00		484.18E+00
			-7.50		484.51E+00
			-7.00		484.82E+00
			-6.50		485.15E+00
			-6.00		485.49E+00
			-5.50		485.86E+00
			-5.00		486.25E+00
			-4.50		486.58E+00
			-4.00		486.89E+00
			-3.50		487.01E+00
			-3.00		487.09E+00
			-2.50		487.06E+00
			-2.00		487.00E+00
			-1.50		486.97E+00
			-1.00		486.95E+00
			-0.50		486.97E+00
			0.00		487.00E+00
			0.50		486.99E+00
			1.00		486.98E+00
			1.50		486.91E+00
			2.00		486.81E+00
			2.50		486.60E+00
			3.00		486.35E+00
			3.50		486.04E+00
			4.00		485.70E+00
			4.50		485.39E+00
			5.00		485.09E+00
			5.50		484.78E+00
			6.00		484.48E+00
			6.50		484.14E+00
			7.00		483.80E+00
			7.50		483.44E+00
			8.00		483.08E+00
			8.50		482.74E+00
			9.00		482.42E+00
			9.50		482.12E+00
			10.00		481.83E+00
			10.50		481.53E+00
			11.00		481.24E+00
			11.50		480.87E+00
			12.00		480.49E+00
			12.50		480.04E+00
			13.00		479.58E+00
			13.50		479.13E+00
			14.00		478.68E+00
			14.50		478.26E+00
			15.00		477.86E+00
			15.50		477.47E+00
			16.00		477.08E+00
			16.50		476.67E+00
			17.00		476.24E+00
			17.50		475.74E+00
			18.00		475.21E+00
			18.50		474.64E+00
			19.00		474.06E+00
			19.50		473.56E+00
			20.00		473.07E+00
			20.50		472.59E+00
			21.00		472.11E+00
			21.50		471.50E+00
			22.00		470.87E+00
			22.50		470.13E+00
			23.00		469.36E+00
			23.50		468.62E+00
			24.00		467.90E+00
			24.50		467.25E+00
			25.00		466.63E+00
			25.50		465.97E+00
			26.00		465.31E+00
			26.50		464.55E+00
			27.00		463.77E+00
			27.50		462.92E+00
			28.00		462.06E+00
			28.50		461.24E+00
			29.00		460.42E+00
			29.50		459.67E+00
			30.00		458.93E+00
			30.50		458.17E+00
			31.00		457.42E+00
			31.50		456.61E+00
			32.00		455.78E+00
			32.50		454.93E+00
			33.00		454.06E+00
			33.50		453.20E+00
			34.00		452.35E+00
			34.50		451.54E+00
			35.00		450.73E+00
			35.50		449.89E+00
			36.00		449.05E+00
			36.50		448.16E+00
			37.00		447.27E+00
			37.50		446.45E+00
			38.00		445.66E+00
			38.50		444.89E+00
			39.00		444.12E+00
			39.50		443.27E+00
			40.00		442.40E+00
			40.50		441.48E+00
			41.00		440.54E+00
			41.50		439.57E+00
			42.00		438.60E+00
			42.50		437.60E+00
			43.00		436.58E+00
			43.50		435.55E+00
			44.00		434.52E+00
			44.50		433.51E+00
			45.00		432.50E+00
			45.50		431.51E+00
			46.00		430.53E+00
			46.50		429.52E+00
			47.00		428.50E+00
			47.50		427.50E+00
			48.00		426.51E+00
			48.50		425.57E+00
			49.00		424.64E+00
			49.50		423.71E+00
			50.00		422.77E+00
			50.50		421.81E+00
			51.00		420.83E+00
			51.50		419.79E+00
			52.00		418.73E+00
			52.50		417.63E+00
			53.00		416.53E+00
			53.50		415.42E+00
			54.00		414.31E+00
			54.50		413.17E+00
			55.00		412.03E+00
			55.50		410.83E+00
			56.00		409.62E+00
			56.50		408.42E+00
			57.00		407.23E+00
			57.50		406.01E+00
			58.00		404.80E+00
			58.50		403.53E+00
			59.00		402.24E+00
			59.50		400.92E+00
			60.00		399.60E+00
			60.50		398.17E+00
			61.00		396.70E+00
			61.50		395.06E+00
			62.00		393.37E+00
			62.50		391.51E+00
			63.00		389.59E+00
			63.50		387.52E+00
			64.00		385.41E+00
			64.50		382.85E+00
			65.00		380.19E+00
			65.50		376.50E+00
			66.00		372.51E+00
			66.50		367.23E+00
			67.00		361.59E+00
			67.50		354.08E+00
			68.00		346.04E+00
			68.50		334.63E+00
			69.00		322.26E+00
			69.50		305.52E+00
			70.00		287.68E+00
			70.50		266.88E+00
			71.00		245.25E+00
			71.50		222.51E+00
			72.00		199.41E+00
			72.50		176.49E+00
			73.00		153.62E+00
			73.50		132.86E+00
			74.00		112.70E+00
			74.50		95.762E+00
			75.00		79.738E+00
			75.50		66.854E+00
			76.00		54.962E+00
			76.50		47.083E+00
			77.00		40.208E+00
			77.50		36.081E+00
			78.00		32.730E+00
			78.50		30.488E+00
			79.00		28.596E+00
			79.50		27.355E+00
			80.00		26.258E+00
			80.50		25.302E+00
			81.00		24.385E+00
			81.50		23.635E+00
			82.00		22.921E+00
			82.50		22.300E+00
			83.00		21.703E+00
			83.50		21.194E+00
			84.00		20.705E+00
			84.50		20.247E+00
			85.00		19.797E+00
			85.50		19.392E+00
			86.00		18.998E+00
			86.50		18.577E+00
			87.00		18.146E+00
			87.50		17.815E+00
			88.00		17.506E+00
			88.50		17.218E+00
			89.00		16.936E+00
			89.50		16.631E+00
			90.00		16.319E+00
			90.50		16.117E+00
			91.00		15.942E+00
			91.50		15.644E+00
			92.00		15.314E+00
			92.50		14.984E+00
			93.00		14.654E+00
			93.50		14.421E+00
			94.00		14.216E+00
			94.50		14.076E+00
			95.00		13.951E+00
			95.50		13.759E+00
			96.00		13.548E+00
			96.50		13.328E+00
			97.00		13.104E+00
			97.50		12.940E+00
			98.00		12.793E+00
			98.50		12.590E+00
			99.00		12.371E+00
			99.50		12.228E+00
			100.00		12.106E+00
			100.50		12.013E+00
			101.00		11.927E+00
			101.50		11.763E+00
			102.00		11.576E+00
			102.50		11.440E+00
			103.00		11.319E+00
			103.50		11.148E+00
			104.00		10.965E+00
			104.50		10.860E+00
			105.00		10.777E+00
			105.50		10.616E+00
			106.00		10.437E+00
			106.50		10.363E+00
			107.00		10.315E+00
			107.50		10.192E+00
			108.00		10.053E+00
			108.50		9.9475E+00
			109.00		9.8521E+00
			109.50		9.7612E+00
			110.00		9.6715E+00
			110.50		9.5789E+00
			111.00		9.4855E+00
			111.50		9.4163E+00
			112.00		9.3538E+00
			112.50		9.2465E+00
			113.00		9.1280E+00
			113.50		8.9966E+00
			114.00		8.8619E+00
			114.50		8.7979E+00
			115.00		8.7539E+00
			115.50		8.6737E+00
			116.00		8.5866E+00
			116.50		8.5013E+00
			117.00		8.4164E+00
			117.50		8.3841E+00
			118.00		8.3666E+00
			118.50		8.2829E+00
			119.00		8.1826E+00
			119.50		8.0591E+00
			120.00		7.9292E+00
		END_DATA
	END_SCAN  1
	BEGIN_SCAN  2
		TASK_NAME=tba PDD Profiles
		PROGRAM=WaterTankScans
		COMMENT=FBF_SanPietro
		MEAS_DATE=08-Feb-2021 09:38:10
		LINAC=MRIdian
		MODALITY=X
		ISOCENTER=900.00
		INPLANE_AXIS=Y
		CROSSPLANE_AXIS=X
		DEPTH_AXIS=Depth
		INPLANE_AXIS_DIR=TARGET_GUN
		CROSSPLANE_AXIS_DIR=LEFT_RIGHT
		DEPTH_AXIS_DIR=UP_DOWN
		ENERGY=6.00
		NOMINAL_DMAX=15.00
		SSD=850.00
		SCD=450.00
		WEDGE_ANGLE=0.00
		FIELD_INPLANE=149.40
		FIELD_CROSSPLANE=149.40
		FIELD_TYPE=RECTANGULAR
		GANTRY=0.00
		GANTRY_UPRIGHT_POSITION=0
		GANTRY_ROTATION=CW
		COLL_ANGLE=0.00
		COLL_OFFSET_INPLANE=0.00
		COLL_OFFSET_CROSSPLANE=0.00
		SCAN_DEVICE=BeamScan
		SCAN_DEVICE_SETUP=BARA_LEFT_RIGHT
		ELECTROMETER=BeamScan
		RANGE_FIELD=LOW
		RANGE_REFERENCE=MEDIUM
		DETECTOR=THIMBLE_CHAMBER
		DETECTOR_RADIUS=2.40
		DETECTOR_NAME=A28MR
		DETECTOR_SN=-
		DETECTOR_CALIBRATION=588000000.00
		DETECTOR_IS_CALIBRATED=0
		DETECTOR_REFERENCE=THIMBLE_CHAMBER
		DETECTOR_REFERENCE_RADIUS=2.75
		DETECTOR_REFERENCE_NAME=A28MR
		DETECTOR_REFERENCE_SN=ÃƒÂ¢Ã¢â€šÂ¬Ã¢â‚¬
		DETECTOR_REFERENCE_IS_CALIBRATED=0
		DETECTOR_REFERENCE_CALIBRATION=303000000.00
		DETECTOR_HV=300.0
		DETECTOR_REFERENCE_HV=300.0
		DETECTOR_ORIENTATION=HORIZONTAL
		FILTER=FFF
		SCAN_SPEED_PROFILE=10.00
		SCAN_PROF_SPEED_DEP=DEPTH
		SCAN_SPEED_PDD=0.00
		SCAN_PDD_SPEED_DEP=ENERGY
		DETECTOR_TYPE=A28MR
		REF_FIELD_DEPTH=220.00
		REF_FIELD_DEFINED=ISOCENTER
		REF_FIELD_INPLANE=100.00
		REF_FIELD_CROSSPLANE=100.00
		REF_SCAN_POSITIONS=-85.00;-84.00;-83.00;-82.00;-81.00;-80.00;-79.00;-78.00;-77.00;-76.00;-75.00;-74.00;-73.00;-72.00;-71.00;-70.00;-69.00;-68.00;-67.00;-66.00;-65.00;-64.00;-63.00;-62.00;-61.00;-60.00;-59.00;-58.00;-57.00;-56.00;-55.00;-54.00;-53.00;-52.00;-51.00;-50.00;-49.00;-48.00;-47.00;-46.00;-45.00;-44.00;-43.00;-42.00;-41.00;-40.00;-39.00;-38.00;-37.00;-36.00;-35.00;-34.00;-33.00;-32.00;-31.00;-30.00;-29.00;-28.00;-27.00;-26.00;-25.00;-24.00;-23.00;-22.00;-21.00;-20.00;-19.00;-18.00;-17.00;-16.00;-15.00;-14.00;-13.00;-12.00;-11.00;-10.00;-9.00;-8.00;-7.00;-6.00;-5.00;-4.00;-3.00;-2.00;-1.00;0.00;1.00;2.00;3.00;4.00;5.00;6.00;7.00;8.00;9.00;10.00;11.00;12.00;13.00;14.00;15.00;16.00;17.00;18.00;19.00;20.00;21.00;22.00;23.00;24.00;25.00;26.00;27.00;28.00;29.00;30.00;31.00;32.00;33.00;34.00;35.00;36.00;37.00;38.00;39.00;40.00;41.00;42.00;43.00;44.00;45.00;46.00;47.00;48.00;49.00;50.00;51.00;52.00;53.00;54.00;55.00;56.00;57.00;58.00;59.00;60.00;61.00;62.00;63.00;64.00;65.00;66.00;67.00;68.00;69.00;70.00;71.00;72.00;73.00;74.00;75.00;76.00;77.00;78.00;79.00;80.00;81.00;82.00;83.00;84.00;85.00;
		REF_OVERSCAN_FACTOR=1.00
		SCAN_CURVETYPE=CROSSPLANE_PROFILE
		SCAN_DEPTH=55.00
		SCAN_OFFAXIS_INPLANE=0.00
		SCAN_OFFAXIS_CROSSPLANE=0.00
		SCAN_ANGLE=0.00
		SCAN_DIAGONAL=NOT_DIAGONAL
		SCAN_DIRECTION=POSITIVE
		MEAS_MEDIUM=WATER
		MEAS_PRESET=MEAS_CONTINUOUS_REFERENCE_SCAN
		MEAS_TIME=0.100
		MEAS_UNIT=A.U.
		INCLINATION_ANGLE=0.00
		PRESSURE=1013.25
		TEMPERATURE=20.00
		NORM_TEMPERATURE=20.00
		CORRECTION_FACTOR=1.0000
		EXPECTED_MAX_DOSE_RATE=3.00
		EPOM_DEPTH_SHIFT=0.2
		EPOM_MODE=SHIFT_PROTOCOL
		CORRECTIONS=CAX_CORR;SMOOTHED_CORR;INTERPOLATED_CORR;
		BEGIN_DATA
			-119.50		10.443E+00
			-119.00		10.591E+00
			-118.50		10.685E+00
			-118.00		10.761E+00
			-117.50		10.877E+00
			-117.00		11.010E+00
			-116.50		11.123E+00
			-116.00		11.228E+00
			-115.50		11.394E+00
			-115.00		11.584E+00
			-114.50		11.688E+00
			-114.00		11.759E+00
			-113.50		11.867E+00
			-113.00		11.989E+00
			-112.50		12.168E+00
			-112.00		12.370E+00
			-111.50		12.515E+00
			-111.00		12.639E+00
			-110.50		12.794E+00
			-110.00		12.958E+00
			-109.50		13.129E+00
			-109.00		13.302E+00
			-108.50		13.475E+00
			-108.00		13.647E+00
			-107.50		13.783E+00
			-107.00		13.906E+00
			-106.50		14.100E+00
			-106.00		14.320E+00
			-105.50		14.528E+00
			-105.00		14.733E+00
			-104.50		14.866E+00
			-104.00		14.971E+00
			-103.50		15.188E+00
			-103.00		15.448E+00
			-102.50		15.709E+00
			-102.00		15.971E+00
			-101.50		16.164E+00
			-101.00		16.334E+00
			-100.50		16.585E+00
			-100.00		16.869E+00
			-99.50		17.127E+00
			-99.00		17.374E+00
			-98.50		17.667E+00
			-98.00		17.979E+00
			-97.50		18.204E+00
			-97.00		18.398E+00
			-96.50		18.715E+00
			-96.00		19.075E+00
			-95.50		19.416E+00
			-95.00		19.749E+00
			-94.50		20.061E+00
			-94.00		20.365E+00
			-93.50		20.656E+00
			-93.00		20.943E+00
			-92.50		21.370E+00
			-92.00		21.852E+00
			-91.50		22.238E+00
			-91.00		22.590E+00
			-90.50		23.094E+00
			-90.00		23.646E+00
			-89.50		24.095E+00
			-89.00		24.508E+00
			-88.50		25.059E+00
			-88.00		25.658E+00
			-87.50		26.286E+00
			-87.00		26.926E+00
			-86.50		27.650E+00
			-86.00		28.404E+00
			-85.50		29.237E+00
			-85.00		30.099E+00
			-84.50		31.065E+00
			-84.00		32.072E+00
			-83.50		33.276E+00
			-83.00		34.550E+00
			-82.50		36.131E+00
			-82.00		37.820E+00
			-81.50		39.987E+00
			-81.00		42.322E+00
			-80.50		45.299E+00
			-80.00		48.524E+00
			-79.50		53.299E+00
			-79.00		58.617E+00
			-78.50		66.200E+00
			-78.00		74.664E+00
			-77.50		86.200E+00
			-77.00		98.929E+00
			-76.50		113.93E+00
			-76.00		129.58E+00
			-75.50		146.45E+00
			-75.00		163.79E+00
			-74.50		181.07E+00
			-74.00		198.32E+00
			-73.50		214.46E+00
			-73.00		230.28E+00
			-72.50		244.83E+00
			-72.00		258.89E+00
			-71.50		270.23E+00
			-71.00		280.51E+00
			-70.50		288.33E+00
			-70.00		295.20E+00
			-69.50		300.14E+00
			-69.00		304.41E+00
			-68.50		307.56E+00
			-68.00		310.26E+00
			-67.50		312.72E+00
			-67.00		315.08E+00
			-66.50		316.94E+00
			-66.00		318.63E+00
			-65.50		319.99E+00
			-65.00		321.23E+00
			-64.50		322.59E+00
			-64.00		323.99E+00
			-63.50		325.42E+00
			-63.00		326.86E+00
			-62.50		328.14E+00
			-62.00		329.36E+00
			-61.50		330.52E+00
			-61.00		331.66E+00
			-60.50		332.76E+00
			-60.00		333.85E+00
			-59.50		334.92E+00
			-59.00		335.98E+00
			-58.50		336.99E+00
			-58.00		337.97E+00
			-57.50		338.92E+00
			-57.00		339.87E+00
			-56.50		340.82E+00
			-56.00		341.77E+00
			-55.50		342.66E+00
			-55.00		343.53E+00
			-54.50		344.53E+00
			-54.00		345.58E+00
			-53.50		346.64E+00
			-53.00		347.70E+00
			-52.50		348.64E+00
			-52.00		349.53E+00
			-51.50		350.44E+00
			-51.00		351.35E+00
			-50.50		352.35E+00
			-50.00		353.39E+00
			-49.50		354.43E+00
			-49.00		355.47E+00
			-48.50		356.34E+00
			-48.00		357.14E+00
			-47.50		357.95E+00
			-47.00		358.76E+00
			-46.50		359.71E+00
			-46.00		360.70E+00
			-45.50		361.52E+00
			-45.00		362.26E+00
			-44.50		362.91E+00
			-44.00		363.52E+00
			-43.50		364.29E+00
			-43.00		365.10E+00
			-42.50		365.96E+00
			-42.00		366.85E+00
			-41.50		367.65E+00
			-41.00		368.44E+00
			-40.50		369.14E+00
			-40.00		369.80E+00
			-39.50		370.49E+00
			-39.00		371.18E+00
			-38.50		371.87E+00
			-38.00		372.57E+00
			-37.50		373.21E+00
			-37.00		373.83E+00
			-36.50		374.50E+00
			-36.00		375.20E+00
			-35.50		376.02E+00
			-35.00		376.89E+00
			-34.50		377.74E+00
			-34.00		378.58E+00
			-33.50		379.31E+00
			-33.00		380.01E+00
			-32.50		380.70E+00
			-32.00		381.40E+00
			-31.50		382.12E+00
			-31.00		382.84E+00
			-30.50		383.48E+00
			-30.00		384.09E+00
			-29.50		384.67E+00
			-29.00		385.24E+00
			-28.50		385.94E+00
			-28.00		386.69E+00
			-27.50		387.37E+00
			-27.00		388.02E+00
			-26.50		388.53E+00
			-26.00		389.00E+00
			-25.50		389.54E+00
			-25.00		390.10E+00
			-24.50		390.73E+00
			-24.00		391.37E+00
			-23.50		392.01E+00
			-23.00		392.64E+00
			-22.50		393.16E+00
			-22.00		393.64E+00
			-21.50		393.98E+00
			-21.00		394.27E+00
			-20.50		394.71E+00
			-20.00		395.22E+00
			-19.50		395.80E+00
			-19.00		396.42E+00
			-18.50		396.86E+00
			-18.00		397.24E+00
			-17.50		397.59E+00
			-17.00		397.91E+00
			-16.50		398.29E+00
			-16.00		398.68E+00
			-15.50		399.06E+00
			-15.00		399.44E+00
			-14.50		399.86E+00
			-14.00		400.30E+00
			-13.50		400.72E+00
			-13.00		401.12E+00
			-12.50		401.52E+00
			-12.00		401.91E+00
			-11.50		402.31E+00
			-11.00		402.71E+00
			-10.50		402.99E+00
			-10.00		403.24E+00
			-9.50		403.47E+00
			-9.00		403.69E+00
			-8.50		403.96E+00
			-8.00		404.24E+00
			-7.50		404.46E+00
			-7.00		404.65E+00
			-6.50		404.85E+00
			-6.00		405.06E+00
			-5.50		405.33E+00
			-5.00		405.62E+00
			-4.50		405.82E+00
			-4.00		405.98E+00
			-3.50		406.05E+00
			-3.00		406.10E+00
			-2.50		406.13E+00
			-2.00		406.15E+00
			-1.50		406.21E+00
			-1.00		406.28E+00
			-0.50		406.32E+00
			0.00		406.35E+00
			0.50		406.27E+00
			1.00		406.14E+00
			1.50		406.00E+00
			2.00		405.84E+00
			2.50		405.74E+00
			3.00		405.65E+00
			3.50		405.53E+00
			4.00		405.38E+00
			4.50		405.11E+00
			5.00		404.78E+00
			5.50		404.47E+00
			6.00		404.16E+00
			6.50		403.99E+00
			7.00		403.85E+00
			7.50		403.70E+00
			8.00		403.54E+00
			8.50		403.36E+00
			9.00		403.19E+00
			9.50		403.07E+00
			10.00		402.98E+00
			10.50		402.78E+00
			11.00		402.53E+00
			11.50		402.21E+00
			12.00		401.86E+00
			12.50		401.54E+00
			13.00		401.24E+00
			13.50		400.83E+00
			14.00		400.38E+00
			14.50		399.94E+00
			15.00		399.49E+00
			15.50		399.13E+00
			16.00		398.81E+00
			16.50		398.43E+00
			17.00		398.03E+00
			17.50		397.64E+00
			18.00		397.26E+00
			18.50		396.98E+00
			19.00		396.73E+00
			19.50		396.43E+00
			20.00		396.10E+00
			20.50		395.68E+00
			21.00		395.22E+00
			21.50		394.66E+00
			22.00		394.06E+00
			22.50		393.37E+00
			23.00		392.65E+00
			23.50		392.08E+00
			24.00		391.56E+00
			24.50		391.13E+00
			25.00		390.72E+00
			25.50		390.17E+00
			26.00		389.55E+00
			26.50		388.90E+00
			27.00		388.23E+00
			27.50		387.60E+00
			28.00		386.97E+00
			28.50		386.33E+00
			29.00		385.68E+00
			29.50		385.04E+00
			30.00		384.40E+00
			30.50		383.78E+00
			31.00		383.15E+00
			31.50		382.45E+00
			32.00		381.71E+00
			32.50		380.97E+00
			33.00		380.23E+00
			33.50		379.54E+00
			34.00		378.87E+00
			34.50		378.19E+00
			35.00		377.52E+00
			35.50		376.85E+00
			36.00		376.19E+00
			36.50		375.55E+00
			37.00		374.91E+00
			37.50		374.24E+00
			38.00		373.56E+00
			38.50		372.76E+00
			39.00		371.91E+00
			39.50		371.07E+00
			40.00		370.24E+00
			40.50		369.50E+00
			41.00		368.81E+00
			41.50		368.10E+00
			42.00		367.40E+00
			42.50		366.62E+00
			43.00		365.82E+00
			43.50		365.00E+00
			44.00		364.16E+00
			44.50		363.43E+00
			45.00		362.73E+00
			45.50		362.01E+00
			46.00		361.29E+00
			46.50		360.39E+00
			47.00		359.44E+00
			47.50		358.47E+00
			48.00		357.50E+00
			48.50		356.67E+00
			49.00		355.89E+00
			49.50		355.05E+00
			50.00		354.18E+00
			50.50		353.21E+00
			51.00		352.19E+00
			51.50		351.24E+00
			52.00		350.31E+00
			52.50		349.43E+00
			53.00		348.57E+00
			53.50		347.61E+00
			54.00		346.61E+00
			54.50		345.62E+00
			55.00		344.64E+00
			55.50		343.72E+00
			56.00		342.81E+00
			56.50		341.85E+00
			57.00		340.87E+00
			57.50		339.84E+00
			58.00		338.78E+00
			58.50		337.69E+00
			59.00		336.59E+00
			59.50		335.51E+00
			60.00		334.42E+00
			60.50		333.29E+00
			61.00		332.14E+00
			61.50		330.97E+00
			62.00		329.78E+00
			62.50		328.57E+00
			63.00		327.34E+00
			63.50		325.96E+00
			64.00		324.52E+00
			64.50		322.91E+00
			65.00		321.25E+00
			65.50		319.46E+00
			66.00		317.62E+00
			66.50		315.68E+00
			67.00		313.70E+00
			67.50		311.40E+00
			68.00		308.98E+00
			68.50		305.43E+00
			69.00		301.45E+00
			69.50		296.88E+00
			70.00		292.11E+00
			70.50		285.99E+00
			71.00		279.28E+00
			71.50		269.77E+00
			72.00		259.05E+00
			72.50		245.45E+00
			73.00		230.93E+00
			73.50		214.96E+00
			74.00		198.43E+00
			74.50		181.27E+00
			75.00		163.86E+00
			75.50		146.57E+00
			76.00		129.32E+00
			76.50		114.01E+00
			77.00		99.316E+00
			77.50		86.398E+00
			78.00		74.243E+00
			78.50		64.645E+00
			79.00		56.041E+00
			79.50		50.230E+00
			80.00		45.301E+00
			80.50		41.751E+00
			81.00		38.791E+00
			81.50		36.877E+00
			82.00		35.293E+00
			82.50		34.009E+00
			83.00		32.831E+00
			83.50		31.881E+00
			84.00		31.019E+00
			84.50		30.141E+00
			85.00		29.256E+00
			85.50		28.613E+00
			86.00		28.055E+00
			86.50		27.464E+00
			87.00		26.861E+00
			87.50		26.305E+00
			88.00		25.765E+00
			88.50		25.224E+00
			89.00		24.682E+00
			89.50		24.194E+00
			90.00		23.726E+00
			90.50		23.269E+00
			91.00		22.817E+00
			91.50		22.450E+00
			92.00		22.116E+00
			92.50		21.671E+00
			93.00		21.187E+00
			93.50		20.814E+00
			94.00		20.484E+00
			94.50		20.151E+00
			95.00		19.815E+00
			95.50		19.540E+00
			96.00		19.285E+00
			96.50		18.930E+00
			97.00		18.535E+00
			97.50		18.273E+00
			98.00		18.063E+00
			98.50		17.858E+00
			99.00		17.655E+00
			99.50		17.363E+00
			100.00		17.038E+00
			100.50		16.803E+00
			101.00		16.594E+00
			101.50		16.390E+00
			102.00		16.188E+00
			102.50		15.936E+00
			103.00		15.671E+00
			103.50		15.454E+00
			104.00		15.253E+00
			104.50		15.072E+00
			105.00		14.897E+00
			105.50		14.680E+00
			106.00		14.447E+00
			106.50		14.295E+00
			107.00		14.173E+00
			107.50		13.969E+00
			108.00		13.737E+00
			108.50		13.570E+00
			109.00		13.425E+00
			109.50		13.286E+00
			110.00		13.148E+00
			110.50		12.943E+00
			111.00		12.714E+00
			111.50		12.523E+00
			112.00		12.347E+00
			112.50		12.189E+00
			113.00		12.036E+00
			113.50		11.929E+00
			114.00		11.838E+00
			114.50		11.756E+00
			115.00		11.678E+00
			115.50		11.531E+00
			116.00		11.364E+00
			116.50		11.240E+00
			117.00		11.131E+00
			117.50		11.079E+00
			118.00		11.051E+00
			118.50		10.859E+00
			119.00		10.604E+00
			119.50		10.483E+00
			120.00		10.415E+00
		END_DATA
	END_SCAN  2
	BEGIN_SCAN  3
		TASK_NAME=tba PDD Profiles
		PROGRAM=WaterTankScans
		COMMENT=FBF_SanPietro
		MEAS_DATE=08-Feb-2021 09:38:10
		LINAC=MRIdian
		MODALITY=X
		ISOCENTER=900.00
		INPLANE_AXIS=Y
		CROSSPLANE_AXIS=X
		DEPTH_AXIS=Depth
		INPLANE_AXIS_DIR=TARGET_GUN
		CROSSPLANE_AXIS_DIR=LEFT_RIGHT
		DEPTH_AXIS_DIR=UP_DOWN
		ENERGY=6.00
		NOMINAL_DMAX=15.00
		SSD=850.00
		SCD=450.00
		WEDGE_ANGLE=0.00
		FIELD_INPLANE=149.40
		FIELD_CROSSPLANE=149.40
		FIELD_TYPE=RECTANGULAR
		GANTRY=0.00
		GANTRY_UPRIGHT_POSITION=0
		GANTRY_ROTATION=CW
		COLL_ANGLE=0.00
		COLL_OFFSET_INPLANE=0.00
		COLL_OFFSET_CROSSPLANE=0.00
		SCAN_DEVICE=BeamScan
		SCAN_DEVICE_SETUP=BARA_LEFT_RIGHT
		ELECTROMETER=BeamScan
		RANGE_FIELD=LOW
		RANGE_REFERENCE=MEDIUM
		DETECTOR=THIMBLE_CHAMBER
		DETECTOR_RADIUS=2.40
		DETECTOR_NAME=A28MR
		DETECTOR_SN=-
		DETECTOR_CALIBRATION=588000000.00
		DETECTOR_IS_CALIBRATED=0
		DETECTOR_REFERENCE=THIMBLE_CHAMBER
		DETECTOR_REFERENCE_RADIUS=2.75
		DETECTOR_REFERENCE_NAME=A28MR
		DETECTOR_REFERENCE_SN=ÃƒÂ¢Ã¢â€šÂ¬Ã¢â‚¬
		DETECTOR_REFERENCE_IS_CALIBRATED=0
		DETECTOR_REFERENCE_CALIBRATION=303000000.00
		DETECTOR_HV=300.0
		DETECTOR_REFERENCE_HV=300.0
		DETECTOR_ORIENTATION=HORIZONTAL
		FILTER=FFF
		SCAN_SPEED_PROFILE=10.00
		SCAN_PROF_SPEED_DEP=DEPTH
		SCAN_SPEED_PDD=0.00
		SCAN_PDD_SPEED_DEP=ENERGY
		DETECTOR_TYPE=A28MR
		REF_FIELD_DEPTH=220.00
		REF_FIELD_DEFINED=ISOCENTER
		REF_FIELD_INPLANE=100.00
		REF_FIELD_CROSSPLANE=100.00
		REF_SCAN_POSITIONS=-85.00;-84.00;-83.00;-82.00;-81.00;-80.00;-79.00;-78.00;-77.00;-76.00;-75.00;-74.00;-73.00;-72.00;-71.00;-70.00;-69.00;-68.00;-67.00;-66.00;-65.00;-64.00;-63.00;-62.00;-61.00;-60.00;-59.00;-58.00;-57.00;-56.00;-55.00;-54.00;-53.00;-52.00;-51.00;-50.00;-49.00;-48.00;-47.00;-46.00;-45.00;-44.00;-43.00;-42.00;-41.00;-40.00;-39.00;-38.00;-37.00;-36.00;-35.00;-34.00;-33.00;-32.00;-31.00;-30.00;-29.00;-28.00;-27.00;-26.00;-25.00;-24.00;-23.00;-22.00;-21.00;-20.00;-19.00;-18.00;-17.00;-16.00;-15.00;-14.00;-13.00;-12.00;-11.00;-10.00;-9.00;-8.00;-7.00;-6.00;-5.00;-4.00;-3.00;-2.00;-1.00;0.00;1.00;2.00;3.00;4.00;5.00;6.00;7.00;8.00;9.00;10.00;11.00;12.00;13.00;14.00;15.00;16.00;17.00;18.00;19.00;20.00;21.00;22.00;23.00;24.00;25.00;26.00;27.00;28.00;29.00;30.00;31.00;32.00;33.00;34.00;35.00;36.00;37.00;38.00;39.00;40.00;41.00;42.00;43.00;44.00;45.00;46.00;47.00;48.00;49.00;50.00;51.00;52.00;53.00;54.00;55.00;56.00;57.00;58.00;59.00;60.00;61.00;62.00;63.00;64.00;65.00;66.00;67.00;68.00;69.00;70.00;71.00;72.00;73.00;74.00;75.00;76.00;77.00;78.00;79.00;80.00;81.00;82.00;83.00;84.00;85.00;
		REF_OVERSCAN_FACTOR=1.00
		SCAN_CURVETYPE=CROSSPLANE_PROFILE
		SCAN_DEPTH=100.00
		SCAN_OFFAXIS_INPLANE=0.00
		SCAN_OFFAXIS_CROSSPLANE=0.00
		SCAN_ANGLE=0.00
		SCAN_DIAGONAL=NOT_DIAGONAL
		SCAN_DIRECTION=POSITIVE
		MEAS_MEDIUM=WATER
		MEAS_PRESET=MEAS_CONTINUOUS_REFERENCE_SCAN
		MEAS_TIME=0.100
		MEAS_UNIT=A.U.
		INCLINATION_ANGLE=0.00
		PRESSURE=1013.25
		TEMPERATURE=20.00
		NORM_TEMPERATURE=20.00
		CORRECTION_FACTOR=1.0000
		EXPECTED_MAX_DOSE_RATE=3.00
		EPOM_DEPTH_SHIFT=0.2
		EPOM_MODE=SHIFT_PROTOCOL
		CORRECTIONS=CAX_CORR;SMOOTHED_CORR;INTERPOLATED_CORR;
		BEGIN_DATA
			-119.50		13.056E+00
			-119.00		13.264E+00
			-118.50		13.421E+00
			-118.00		13.556E+00
			-117.50		13.780E+00
			-117.00		14.046E+00
			-116.50		14.180E+00
			-116.00		14.246E+00
			-115.50		14.427E+00
			-115.00		14.667E+00
			-114.50		14.825E+00
			-114.00		14.948E+00
			-113.50		15.111E+00
			-113.00		15.295E+00
			-112.50		15.524E+00
			-112.00		15.769E+00
			-111.50		15.935E+00
			-111.00		16.066E+00
			-110.50		16.257E+00
			-110.00		16.480E+00
			-109.50		16.652E+00
			-109.00		16.805E+00
			-108.50		17.052E+00
			-108.00		17.339E+00
			-107.50		17.547E+00
			-107.00		17.718E+00
			-106.50		17.964E+00
			-106.00		18.244E+00
			-105.50		18.471E+00
			-105.00		18.673E+00
			-104.50		18.943E+00
			-104.00		19.244E+00
			-103.50		19.551E+00
			-103.00		19.860E+00
			-102.50		20.117E+00
			-102.00		20.352E+00
			-101.50		20.596E+00
			-101.00		20.845E+00
			-100.50		21.156E+00
			-100.00		21.498E+00
			-99.50		21.834E+00
			-99.00		22.168E+00
			-98.50		22.563E+00
			-98.00		22.986E+00
			-97.50		23.323E+00
			-97.00		23.620E+00
			-96.50		23.906E+00
			-96.00		24.189E+00
			-95.50		24.601E+00
			-95.00		25.074E+00
			-94.50		25.504E+00
			-94.00		25.915E+00
			-93.50		26.373E+00
			-93.00		26.851E+00
			-92.50		27.347E+00
			-92.00		27.852E+00
			-91.50		28.431E+00
			-91.00		29.042E+00
			-90.50		29.601E+00
			-90.00		30.139E+00
			-89.50		30.831E+00
			-89.00		31.597E+00
			-88.50		32.373E+00
			-88.00		33.154E+00
			-87.50		34.067E+00
			-87.00		35.042E+00
			-86.50		36.228E+00
			-86.00		37.506E+00
			-85.50		39.066E+00
			-85.00		40.758E+00
			-84.50		42.934E+00
			-84.00		45.318E+00
			-83.50		48.455E+00
			-83.00		51.915E+00
			-82.50		56.814E+00
			-82.00		62.391E+00
			-81.50		69.905E+00
			-81.00		78.100E+00
			-80.50		88.027E+00
			-80.00		98.696E+00
			-79.50		110.07E+00
			-79.00		121.78E+00
			-78.50		133.90E+00
			-78.00		146.19E+00
			-77.50		158.17E+00
			-77.00		169.98E+00
			-76.50		180.68E+00
			-76.00		190.94E+00
			-75.50		199.83E+00
			-75.00		208.09E+00
			-74.50		214.63E+00
			-74.00		220.50E+00
			-73.50		224.83E+00
			-73.00		228.57E+00
			-72.50		231.70E+00
			-72.00		234.53E+00
			-71.50		236.70E+00
			-71.00		238.64E+00
			-70.50		240.40E+00
			-70.00		242.07E+00
			-69.50		243.31E+00
			-69.00		244.36E+00
			-68.50		245.42E+00
			-68.00		246.48E+00
			-67.50		247.55E+00
			-67.00		248.61E+00
			-66.50		249.64E+00
			-66.00		250.66E+00
			-65.50		251.61E+00
			-65.00		252.52E+00
			-64.50		253.44E+00
			-64.00		254.38E+00
			-63.50		255.34E+00
			-63.00		256.30E+00
			-62.50		257.16E+00
			-62.00		257.96E+00
			-61.50		258.77E+00
			-61.00		259.56E+00
			-60.50		260.40E+00
			-60.00		261.26E+00
			-59.50		262.16E+00
			-59.00		263.08E+00
			-58.50		263.99E+00
			-58.00		264.89E+00
			-57.50		265.63E+00
			-57.00		266.28E+00
			-56.50		266.89E+00
			-56.00		267.46E+00
			-55.50		268.12E+00
			-55.00		268.81E+00
			-54.50		269.56E+00
			-54.00		270.35E+00
			-53.50		271.15E+00
			-53.00		271.96E+00
			-52.50		272.72E+00
			-52.00		273.47E+00
			-51.50		274.17E+00
			-51.00		274.85E+00
			-50.50		275.53E+00
			-50.00		276.20E+00
			-49.50		276.86E+00
			-49.00		277.51E+00
			-48.50		278.17E+00
			-48.00		278.85E+00
			-47.50		279.61E+00
			-47.00		280.41E+00
			-46.50		281.17E+00
			-46.00		281.93E+00
			-45.50		282.52E+00
			-45.00		283.04E+00
			-44.50		283.53E+00
			-44.00		284.00E+00
			-43.50		284.56E+00
			-43.00		285.15E+00
			-42.50		285.78E+00
			-42.00		286.44E+00
			-41.50		287.07E+00
			-41.00		287.70E+00
			-40.50		288.25E+00
			-40.00		288.79E+00
			-39.50		289.37E+00
			-39.00		289.97E+00
			-38.50		290.63E+00
			-38.00		291.33E+00
			-37.50		292.00E+00
			-37.00		292.65E+00
			-36.50		293.22E+00
			-36.00		293.76E+00
			-35.50		294.30E+00
			-35.00		294.84E+00
			-34.50		295.44E+00
			-34.00		296.07E+00
			-33.50		296.59E+00
			-33.00		297.07E+00
			-32.50		297.48E+00
			-32.00		297.87E+00
			-31.50		298.38E+00
			-31.00		298.94E+00
			-30.50		299.54E+00
			-30.00		300.15E+00
			-29.50		300.68E+00
			-29.00		301.16E+00
			-28.50		301.59E+00
			-28.00		301.99E+00
			-27.50		302.40E+00
			-27.00		302.81E+00
			-26.50		303.19E+00
			-26.00		303.56E+00
			-25.50		304.03E+00
			-25.00		304.54E+00
			-24.50		305.13E+00
			-24.00		305.76E+00
			-23.50		306.20E+00
			-23.00		306.56E+00
			-22.50		306.82E+00
			-22.00		307.02E+00
			-21.50		307.35E+00
			-21.00		307.73E+00
			-20.50		308.15E+00
			-20.00		308.57E+00
			-19.50		308.95E+00
			-19.00		309.30E+00
			-18.50		309.65E+00
			-18.00		309.99E+00
			-17.50		310.35E+00
			-17.00		310.71E+00
			-16.50		311.03E+00
			-16.00		311.35E+00
			-15.50		311.56E+00
			-15.00		311.72E+00
			-14.50		311.92E+00
			-14.00		312.12E+00
			-13.50		312.46E+00
			-13.00		312.85E+00
			-12.50		313.19E+00
			-12.00		313.49E+00
			-11.50		313.70E+00
			-11.00		313.85E+00
			-10.50		314.07E+00
			-10.00		314.32E+00
			-9.50		314.57E+00
			-9.00		314.81E+00
			-8.50		314.99E+00
			-8.00		315.13E+00
			-7.50		315.23E+00
			-7.00		315.30E+00
			-6.50		315.37E+00
			-6.00		315.45E+00
			-5.50		315.54E+00
			-5.00		315.64E+00
			-4.50		315.80E+00
			-4.00		315.99E+00
			-3.50		316.24E+00
			-3.00		316.52E+00
			-2.50		316.64E+00
			-2.00		316.67E+00
			-1.50		316.57E+00
			-1.00		316.40E+00
			-0.50		316.33E+00
			0.00		316.30E+00
			0.50		316.28E+00
			1.00		316.27E+00
			1.50		316.21E+00
			2.00		316.13E+00
			2.50		316.08E+00
			3.00		316.05E+00
			3.50		316.04E+00
			4.00		316.05E+00
			4.50		315.93E+00
			5.00		315.76E+00
			5.50		315.53E+00
			6.00		315.27E+00
			6.50		315.09E+00
			7.00		314.94E+00
			7.50		314.85E+00
			8.00		314.80E+00
			8.50		314.62E+00
			9.00		314.39E+00
			9.50		314.06E+00
			10.00		313.68E+00
			10.50		313.39E+00
			11.00		313.14E+00
			11.50		312.93E+00
			12.00		312.74E+00
			12.50		312.53E+00
			13.00		312.32E+00
			13.50		312.13E+00
			14.00		311.94E+00
			14.50		311.73E+00
			15.00		311.51E+00
			15.50		311.27E+00
			16.00		311.01E+00
			16.50		310.77E+00
			17.00		310.53E+00
			17.50		310.22E+00
			18.00		309.88E+00
			18.50		309.38E+00
			19.00		308.82E+00
			19.50		308.35E+00
			20.00		307.92E+00
			20.50		307.67E+00
			21.00		307.51E+00
			21.50		307.34E+00
			22.00		307.17E+00
			22.50		306.96E+00
			23.00		306.73E+00
			23.50		306.41E+00
			24.00		306.04E+00
			24.50		305.57E+00
			25.00		305.05E+00
			25.50		304.59E+00
			26.00		304.14E+00
			26.50		303.72E+00
			27.00		303.30E+00
			27.50		302.82E+00
			28.00		302.31E+00
			28.50		301.80E+00
			29.00		301.29E+00
			29.50		300.77E+00
			30.00		300.24E+00
			30.50		299.73E+00
			31.00		299.23E+00
			31.50		298.83E+00
			32.00		298.47E+00
			32.50		298.02E+00
			33.00		297.54E+00
			33.50		297.00E+00
			34.00		296.44E+00
			34.50		295.85E+00
			35.00		295.26E+00
			35.50		294.66E+00
			36.00		294.05E+00
			36.50		293.51E+00
			37.00		293.02E+00
			37.50		292.46E+00
			38.00		291.87E+00
			38.50		291.25E+00
			39.00		290.63E+00
			39.50		290.11E+00
			40.00		289.63E+00
			40.50		289.08E+00
			41.00		288.49E+00
			41.50		287.87E+00
			42.00		287.23E+00
			42.50		286.67E+00
			43.00		286.14E+00
			43.50		285.53E+00
			44.00		284.88E+00
			44.50		284.23E+00
			45.00		283.59E+00
			45.50		283.03E+00
			46.00		282.51E+00
			46.50		281.93E+00
			47.00		281.31E+00
			47.50		280.62E+00
			48.00		279.89E+00
			48.50		279.14E+00
			49.00		278.39E+00
			49.50		277.67E+00
			50.00		276.96E+00
			50.50		276.27E+00
			51.00		275.57E+00
			51.50		274.82E+00
			52.00		274.04E+00
			52.50		273.33E+00
			53.00		272.63E+00
			53.50		271.97E+00
			54.00		271.33E+00
			54.50		270.63E+00
			55.00		269.90E+00
			55.50		269.16E+00
			56.00		268.41E+00
			56.50		267.68E+00
			57.00		266.95E+00
			57.50		266.19E+00
			58.00		265.42E+00
			58.50		264.62E+00
			59.00		263.80E+00
			59.50		263.00E+00
			60.00		262.22E+00
			60.50		261.37E+00
			61.00		260.50E+00
			61.50		259.60E+00
			62.00		258.71E+00
			62.50		257.83E+00
			63.00		256.96E+00
			63.50		256.00E+00
			64.00		254.99E+00
			64.50		253.98E+00
			65.00		252.96E+00
			65.50		251.99E+00
			66.00		251.04E+00
			66.50		250.02E+00
			67.00		248.95E+00
			67.50		247.77E+00
			68.00		246.54E+00
			68.50		245.34E+00
			69.00		244.16E+00
			69.50		242.67E+00
			70.00		241.03E+00
			70.50		239.26E+00
			71.00		237.42E+00
			71.50		235.32E+00
			72.00		233.09E+00
			72.50		230.16E+00
			73.00		226.95E+00
			73.50		222.99E+00
			74.00		218.68E+00
			74.50		213.25E+00
			75.00		207.23E+00
			75.50		199.22E+00
			76.00		190.45E+00
			76.50		180.41E+00
			77.00		169.78E+00
			77.50		158.10E+00
			78.00		145.89E+00
			78.50		133.51E+00
			79.00		121.04E+00
			79.50		109.34E+00
			80.00		97.927E+00
			80.50		87.515E+00
			81.00		77.617E+00
			81.50		69.100E+00
			82.00		61.233E+00
			82.50		55.198E+00
			83.00		49.948E+00
			83.50		46.086E+00
			84.00		42.938E+00
			84.50		40.614E+00
			85.00		38.642E+00
			85.50		37.157E+00
			86.00		35.880E+00
			86.50		34.890E+00
			87.00		34.035E+00
			87.50		33.278E+00
			88.00		32.558E+00
			88.50		31.884E+00
			89.00		31.234E+00
			89.50		30.628E+00
			90.00		30.043E+00
			90.50		29.515E+00
			91.00		29.012E+00
			91.50		28.571E+00
			92.00		28.156E+00
			92.50		27.672E+00
			93.00		27.156E+00
			93.50		26.702E+00
			94.00		26.277E+00
			94.50		25.792E+00
			95.00		25.280E+00
			95.50		24.940E+00
			96.00		24.674E+00
			96.50		24.282E+00
			97.00		23.826E+00
			97.50		23.479E+00
			98.00		23.171E+00
			98.50		22.846E+00
			99.00		22.513E+00
			99.50		22.143E+00
			100.00		21.756E+00
			100.50		21.451E+00
			101.00		21.178E+00
			101.50		20.878E+00
			102.00		20.566E+00
			102.50		20.292E+00
			103.00		20.035E+00
			103.50		19.704E+00
			104.00		19.340E+00
			104.50		19.069E+00
			105.00		18.840E+00
			105.50		18.569E+00
			106.00		18.282E+00
			106.50		18.079E+00
			107.00		17.917E+00
			107.50		17.691E+00
			108.00		17.440E+00
			108.50		17.238E+00
			109.00		17.057E+00
			109.50		16.870E+00
			110.00		16.680E+00
			110.50		16.477E+00
			111.00		16.269E+00
			111.50		16.033E+00
			112.00		15.784E+00
			112.50		15.571E+00
			113.00		15.373E+00
			113.50		15.190E+00
			114.00		15.014E+00
			114.50		14.900E+00
			115.00		14.815E+00
			115.50		14.605E+00
			116.00		14.350E+00
			116.50		14.168E+00
			117.00		14.020E+00
			117.50		13.890E+00
			118.00		13.765E+00
			118.50		13.599E+00
			119.00		13.415E+00
			119.50		13.274E+00
			120.00		13.152E+00
		END_DATA
	END_SCAN  3
END_SCAN_DATA
