BEGIN_SCAN_DATA
	FORMAT=CC-Export V1.9                  
	FILE_CREATION_DATE=17-Oct-2022 15:38:17
	LAST_MODIFIED=17-Oct-2022 15:38:17
	BEGIN_SCAN  1
		TASK_NAME=tba PDD Profiles
		PROGRAM=WaterTankScans
		COMMENT=FBF_SanPietro
		MEAS_DATE=08-Feb-2021 09:38:10
		LINAC=MRIdian
		MODALITY=X
		ISOCENTER=900.00
		INPLANE_AXIS=Y
		CROSSPLANE_AXIS=X
		DEPTH_AXIS=Depth
		INPLANE_AXIS_DIR=TARGET_GUN
		CROSSPLANE_AXIS_DIR=LEFT_RIGHT
		DEPTH_AXIS_DIR=UP_DOWN
		ENERGY=6.00
		NOMINAL_DMAX=15.00
		SSD=850.00
		SCD=450.00
		WEDGE_ANGLE=0.00
		FIELD_INPLANE=66.40
		FIELD_CROSSPLANE=66.40
		FIELD_TYPE=RECTANGULAR
		GANTRY=0.00
		GANTRY_UPRIGHT_POSITION=0
		GANTRY_ROTATION=CW
		COLL_ANGLE=0.00
		COLL_OFFSET_INPLANE=0.00
		COLL_OFFSET_CROSSPLANE=0.00
		SCAN_DEVICE=BeamScan
		SCAN_DEVICE_SETUP=BARA_LEFT_RIGHT
		ELECTROMETER=BeamScan
		RANGE_FIELD=LOW
		RANGE_REFERENCE=MEDIUM
		DETECTOR=THIMBLE_CHAMBER
		DETECTOR_RADIUS=2.40
		DETECTOR_NAME=A28MR
		DETECTOR_SN=-
		DETECTOR_CALIBRATION=588000000.00
		DETECTOR_IS_CALIBRATED=0
		DETECTOR_REFERENCE=THIMBLE_CHAMBER
		DETECTOR_REFERENCE_RADIUS=2.75
		DETECTOR_REFERENCE_NAME=A28MR
		DETECTOR_REFERENCE_SN=ÃƒÂ¢Ã¢â€šÂ¬Ã¢â‚¬
		DETECTOR_REFERENCE_IS_CALIBRATED=0
		DETECTOR_REFERENCE_CALIBRATION=303000000.00
		DETECTOR_HV=300.0
		DETECTOR_REFERENCE_HV=300.0
		DETECTOR_ORIENTATION=HORIZONTAL
		FILTER=FFF
		SCAN_SPEED_PROFILE=10.00
		SCAN_PROF_SPEED_DEP=DEPTH
		SCAN_SPEED_PDD=0.00
		SCAN_PDD_SPEED_DEP=ENERGY
		DETECTOR_TYPE=A28MR
		REF_FIELD_DEPTH=220.00
		REF_FIELD_DEFINED=ISOCENTER
		REF_FIELD_INPLANE=100.00
		REF_FIELD_CROSSPLANE=100.00
		REF_SCAN_POSITIONS=-85.00;-84.00;-83.00;-82.00;-81.00;-80.00;-79.00;-78.00;-77.00;-76.00;-75.00;-74.00;-73.00;-72.00;-71.00;-70.00;-69.00;-68.00;-67.00;-66.00;-65.00;-64.00;-63.00;-62.00;-61.00;-60.00;-59.00;-58.00;-57.00;-56.00;-55.00;-54.00;-53.00;-52.00;-51.00;-50.00;-49.00;-48.00;-47.00;-46.00;-45.00;-44.00;-43.00;-42.00;-41.00;-40.00;-39.00;-38.00;-37.00;-36.00;-35.00;-34.00;-33.00;-32.00;-31.00;-30.00;-29.00;-28.00;-27.00;-26.00;-25.00;-24.00;-23.00;-22.00;-21.00;-20.00;-19.00;-18.00;-17.00;-16.00;-15.00;-14.00;-13.00;-12.00;-11.00;-10.00;-9.00;-8.00;-7.00;-6.00;-5.00;-4.00;-3.00;-2.00;-1.00;0.00;1.00;2.00;3.00;4.00;5.00;6.00;7.00;8.00;9.00;10.00;11.00;12.00;13.00;14.00;15.00;16.00;17.00;18.00;19.00;20.00;21.00;22.00;23.00;24.00;25.00;26.00;27.00;28.00;29.00;30.00;31.00;32.00;33.00;34.00;35.00;36.00;37.00;38.00;39.00;40.00;41.00;42.00;43.00;44.00;45.00;46.00;47.00;48.00;49.00;50.00;51.00;52.00;53.00;54.00;55.00;56.00;57.00;58.00;59.00;60.00;61.00;62.00;63.00;64.00;65.00;66.00;67.00;68.00;69.00;70.00;71.00;72.00;73.00;74.00;75.00;76.00;77.00;78.00;79.00;80.00;81.00;82.00;83.00;84.00;85.00;
		REF_OVERSCAN_FACTOR=1.00
		SCAN_CURVETYPE=CROSSPLANE_PROFILE
		SCAN_DEPTH=20.00
		SCAN_OFFAXIS_INPLANE=0.00
		SCAN_OFFAXIS_CROSSPLANE=0.00
		SCAN_ANGLE=0.00
		SCAN_DIAGONAL=NOT_DIAGONAL
		SCAN_DIRECTION=POSITIVE
		MEAS_MEDIUM=WATER
		MEAS_PRESET=MEAS_CONTINUOUS_REFERENCE_SCAN
		MEAS_TIME=0.100
		MEAS_UNIT=A.U.
		INCLINATION_ANGLE=0.00
		PRESSURE=1013.25
		TEMPERATURE=20.00
		NORM_TEMPERATURE=20.00
		CORRECTION_FACTOR=1.0000
		EXPECTED_MAX_DOSE_RATE=3.00
		EPOM_DEPTH_SHIFT=0.2
		EPOM_MODE=SHIFT_PROTOCOL
		CORRECTIONS=CAX_CORR;MODIFIED_CORR;SMOOTHED_CORR;INTERPOLATED_CORR;
		BEGIN_DATA
			-59.50		5.7102E+00
			-59.00		5.9403E+00
			-58.50		6.0415E+00
			-58.00		6.0415E+00
			-57.50		6.1716E+00
			-57.00		6.4040E+00
			-56.50		6.5062E+00
			-56.00		6.5062E+00
			-55.50		6.6410E+00
			-55.00		6.8733E+00
			-54.50		6.9709E+00
			-54.00		6.9709E+00
			-53.50		7.1044E+00
			-53.00		7.3345E+00
			-52.50		7.5671E+00
			-52.00		7.8018E+00
			-51.50		8.0352E+00
			-51.00		8.2675E+00
			-50.50		8.4986E+00
			-50.00		8.7287E+00
			-49.50		8.9613E+00
			-49.00		9.1960E+00
			-48.50		9.4280E+00
			-48.00		9.6581E+00
			-47.50		9.8907E+00
			-47.00		10.125E+00
			-46.50		10.491E+00
			-46.00		10.951E+00
			-45.50		11.414E+00
			-45.00		11.879E+00
			-44.50		12.346E+00
			-44.00		12.815E+00
			-43.50		13.413E+00
			-43.00		14.103E+00
			-42.50		14.922E+00
			-42.00		15.843E+00
			-41.50		16.913E+00
			-41.00		18.110E+00
			-40.50		19.536E+00
			-40.00		21.116E+00
			-39.50		22.888E+00
			-39.00		25.022E+00
			-38.50		27.618E+00
			-38.00		30.627E+00
			-37.50		34.419E+00
			-37.00		39.684E+00
			-36.50		46.273E+00
			-36.00		54.922E+00
			-35.50		66.298E+00
			-35.00		80.817E+00
			-34.50		98.763E+00
			-34.00		120.10E+00
			-33.50		143.68E+00
			-33.00		168.89E+00
			-32.50		195.18E+00
			-32.00		222.78E+00
			-31.50		250.05E+00
			-31.00		275.73E+00
			-30.50		300.83E+00
			-30.00		324.32E+00
			-29.50		345.56E+00
			-29.00		364.36E+00
			-28.50		380.94E+00
			-28.00		394.86E+00
			-27.50		405.15E+00
			-27.00		413.21E+00
			-26.50		419.63E+00
			-26.00		425.21E+00
			-25.50		429.36E+00
			-25.00		432.16E+00
			-24.50		434.64E+00
			-24.00		436.92E+00
			-23.50		438.77E+00
			-23.00		440.28E+00
			-22.50		441.73E+00
			-22.00		443.09E+00
			-21.50		444.16E+00
			-21.00		445.06E+00
			-20.50		446.09E+00
			-20.00		447.18E+00
			-19.50		448.13E+00
			-19.00		448.99E+00
			-18.50		449.93E+00
			-18.00		450.81E+00
			-17.50		451.51E+00
			-17.00		452.17E+00
			-16.50		452.93E+00
			-16.00		453.65E+00
			-15.50		454.31E+00
			-15.00		455.00E+00
			-14.50		455.61E+00
			-14.00		456.09E+00
			-13.50		456.68E+00
			-13.00		457.40E+00
			-12.50		457.90E+00
			-12.00		458.17E+00
			-11.50		458.51E+00
			-11.00		459.05E+00
			-10.50		459.55E+00
			-10.00		459.97E+00
			-9.50		460.42E+00
			-9.00		460.86E+00
			-8.50		461.19E+00
			-8.00		461.52E+00
			-7.50		461.97E+00
			-7.00		462.40E+00
			-6.50		462.65E+00
			-6.00		462.91E+00
			-5.50		463.27E+00
			-5.00		463.56E+00
			-4.50		463.72E+00
			-4.00		463.90E+00
			-3.50		464.10E+00
			-3.00		464.18E+00
			-2.50		464.21E+00
			-2.00		464.35E+00
			-1.50		464.49E+00
			-1.00		464.50E+00
			-0.50		464.50E+00
			0.00		464.54E+00
			0.50		464.40E+00
			1.00		464.18E+00
			1.50		464.12E+00
			2.00		464.04E+00
			2.50		463.66E+00
			3.00		463.19E+00
			3.50		462.97E+00
			4.00		462.85E+00
			4.50		462.59E+00
			5.00		462.25E+00
			5.50		462.00E+00
			6.00		461.74E+00
			6.50		461.35E+00
			7.00		460.91E+00
			7.50		460.51E+00
			8.00		460.04E+00
			8.50		459.51E+00
			9.00		459.14E+00
			9.50		458.90E+00
			10.00		458.54E+00
			10.50		458.02E+00
			11.00		457.49E+00
			11.50		456.93E+00
			12.00		456.34E+00
			12.50		455.81E+00
			13.00		455.39E+00
			13.50		454.92E+00
			14.00		454.37E+00
			14.50		453.85E+00
			15.00		453.27E+00
			15.50		452.49E+00
			16.00		451.60E+00
			16.50		450.80E+00
			17.00		450.04E+00
			17.50		449.24E+00
			18.00		448.48E+00
			18.50		447.68E+00
			19.00		446.74E+00
			19.50		445.75E+00
			20.00		444.71E+00
			20.50		443.48E+00
			21.00		442.11E+00
			21.50		440.86E+00
			22.00		439.56E+00
			22.50		437.90E+00
			23.00		435.97E+00
			23.50		433.94E+00
			24.00		431.60E+00
			24.50		428.81E+00
			25.00		425.70E+00
			25.50		422.17E+00
			26.00		417.28E+00
			26.50		411.72E+00
			27.00		405.39E+00
			27.50		397.78E+00
			28.00		388.12E+00
			28.50		375.70E+00
			29.00		361.03E+00
			29.50		343.59E+00
			30.00		322.59E+00
			30.50		299.75E+00
			31.00		275.41E+00
			31.50		249.75E+00
			32.00		223.16E+00
			32.50		197.10E+00
			33.00		171.52E+00
			33.50		146.79E+00
			34.00		123.95E+00
			34.50		103.24E+00
			35.00		84.545E+00
			35.50		68.182E+00
			36.00		54.801E+00
			36.50		44.335E+00
			37.00		36.581E+00
			37.50		30.976E+00
			38.00		26.731E+00
			38.50		23.236E+00
			39.00		21.017E+00
			39.50		19.612E+00
			40.00		18.250E+00
			40.50		17.139E+00
			41.00		16.210E+00
			41.50		15.399E+00
			42.00		14.680E+00
			42.50		14.127E+00
			43.00		13.676E+00
			43.50		13.212E+00
			44.00		12.738E+00
			44.50		12.272E+00
			45.00		11.811E+00
			45.50		11.351E+00
			46.00		10.891E+00
			46.50		10.556E+00
			47.00		10.319E+00
			47.50		9.9506E+00
			48.00		9.4951E+00
			48.50		9.1618E+00
			49.00		8.9247E+00
			49.50		8.6932E+00
			50.00		8.4654E+00
			50.50		8.3651E+00
			51.00		8.3651E+00
			51.50		8.2337E+00
			52.00		7.9990E+00
			52.50		7.7670E+00
			53.00		7.5369E+00
			53.50		7.3029E+00
			54.00		7.0658E+00
			54.50		6.9709E+00
			55.00		6.9709E+00
			55.50		6.8408E+00
			56.00		6.6084E+00
			56.50		6.5062E+00
			57.00		6.5062E+00
			57.50		6.3761E+00
			58.00		6.1437E+00
			58.50		6.0415E+00
			59.00		6.0415E+00
			59.50		5.9081E+00
			60.00		5.6780E+00
		END_DATA
	END_SCAN  1
	BEGIN_SCAN  2
		TASK_NAME=tba PDD Profiles
		PROGRAM=WaterTankScans
		COMMENT=FBF_SanPietro
		MEAS_DATE=08-Feb-2021 09:38:10
		LINAC=MRIdian
		MODALITY=X
		ISOCENTER=900.00
		INPLANE_AXIS=Y
		CROSSPLANE_AXIS=X
		DEPTH_AXIS=Depth
		INPLANE_AXIS_DIR=TARGET_GUN
		CROSSPLANE_AXIS_DIR=LEFT_RIGHT
		DEPTH_AXIS_DIR=UP_DOWN
		ENERGY=6.00
		NOMINAL_DMAX=15.00
		SSD=850.00
		SCD=450.00
		WEDGE_ANGLE=0.00
		FIELD_INPLANE=66.40
		FIELD_CROSSPLANE=66.40
		FIELD_TYPE=RECTANGULAR
		GANTRY=0.00
		GANTRY_UPRIGHT_POSITION=0
		GANTRY_ROTATION=CW
		COLL_ANGLE=0.00
		COLL_OFFSET_INPLANE=0.00
		COLL_OFFSET_CROSSPLANE=0.00
		SCAN_DEVICE=BeamScan
		SCAN_DEVICE_SETUP=BARA_LEFT_RIGHT
		ELECTROMETER=BeamScan
		RANGE_FIELD=LOW
		RANGE_REFERENCE=MEDIUM
		DETECTOR=THIMBLE_CHAMBER
		DETECTOR_RADIUS=2.40
		DETECTOR_NAME=A28MR
		DETECTOR_SN=-
		DETECTOR_CALIBRATION=588000000.00
		DETECTOR_IS_CALIBRATED=0
		DETECTOR_REFERENCE=THIMBLE_CHAMBER
		DETECTOR_REFERENCE_RADIUS=2.75
		DETECTOR_REFERENCE_NAME=A28MR
		DETECTOR_REFERENCE_SN=ÃƒÂ¢Ã¢â€šÂ¬Ã¢â‚¬
		DETECTOR_REFERENCE_IS_CALIBRATED=0
		DETECTOR_REFERENCE_CALIBRATION=303000000.00
		DETECTOR_HV=300.0
		DETECTOR_REFERENCE_HV=300.0
		DETECTOR_ORIENTATION=HORIZONTAL
		FILTER=FFF
		SCAN_SPEED_PROFILE=10.00
		SCAN_PROF_SPEED_DEP=DEPTH
		SCAN_SPEED_PDD=0.00
		SCAN_PDD_SPEED_DEP=ENERGY
		DETECTOR_TYPE=A28MR
		REF_FIELD_DEPTH=220.00
		REF_FIELD_DEFINED=ISOCENTER
		REF_FIELD_INPLANE=100.00
		REF_FIELD_CROSSPLANE=100.00
		REF_SCAN_POSITIONS=-85.00;-84.00;-83.00;-82.00;-81.00;-80.00;-79.00;-78.00;-77.00;-76.00;-75.00;-74.00;-73.00;-72.00;-71.00;-70.00;-69.00;-68.00;-67.00;-66.00;-65.00;-64.00;-63.00;-62.00;-61.00;-60.00;-59.00;-58.00;-57.00;-56.00;-55.00;-54.00;-53.00;-52.00;-51.00;-50.00;-49.00;-48.00;-47.00;-46.00;-45.00;-44.00;-43.00;-42.00;-41.00;-40.00;-39.00;-38.00;-37.00;-36.00;-35.00;-34.00;-33.00;-32.00;-31.00;-30.00;-29.00;-28.00;-27.00;-26.00;-25.00;-24.00;-23.00;-22.00;-21.00;-20.00;-19.00;-18.00;-17.00;-16.00;-15.00;-14.00;-13.00;-12.00;-11.00;-10.00;-9.00;-8.00;-7.00;-6.00;-5.00;-4.00;-3.00;-2.00;-1.00;0.00;1.00;2.00;3.00;4.00;5.00;6.00;7.00;8.00;9.00;10.00;11.00;12.00;13.00;14.00;15.00;16.00;17.00;18.00;19.00;20.00;21.00;22.00;23.00;24.00;25.00;26.00;27.00;28.00;29.00;30.00;31.00;32.00;33.00;34.00;35.00;36.00;37.00;38.00;39.00;40.00;41.00;42.00;43.00;44.00;45.00;46.00;47.00;48.00;49.00;50.00;51.00;52.00;53.00;54.00;55.00;56.00;57.00;58.00;59.00;60.00;61.00;62.00;63.00;64.00;65.00;66.00;67.00;68.00;69.00;70.00;71.00;72.00;73.00;74.00;75.00;76.00;77.00;78.00;79.00;80.00;81.00;82.00;83.00;84.00;85.00;
		REF_OVERSCAN_FACTOR=1.00
		SCAN_CURVETYPE=CROSSPLANE_PROFILE
		SCAN_DEPTH=55.00
		SCAN_OFFAXIS_INPLANE=0.00
		SCAN_OFFAXIS_CROSSPLANE=0.00
		SCAN_ANGLE=0.00
		SCAN_DIAGONAL=NOT_DIAGONAL
		SCAN_DIRECTION=POSITIVE
		MEAS_MEDIUM=WATER
		MEAS_PRESET=MEAS_CONTINUOUS_REFERENCE_SCAN
		MEAS_TIME=0.100
		MEAS_UNIT=A.U.
		INCLINATION_ANGLE=0.00
		PRESSURE=1013.25
		TEMPERATURE=20.00
		NORM_TEMPERATURE=20.00
		CORRECTION_FACTOR=1.0000
		EXPECTED_MAX_DOSE_RATE=3.00
		EPOM_DEPTH_SHIFT=0.2
		EPOM_MODE=SHIFT_PROTOCOL
		CORRECTIONS=CAX_CORR;MODIFIED_CORR;SMOOTHED_CORR;INTERPOLATED_CORR;
		BEGIN_DATA
			-59.50		8.4239E+00
			-59.00		8.6106E+00
			-58.50		8.7985E+00
			-58.00		8.9870E+00
			-57.50		9.2986E+00
			-57.00		9.6682E+00
			-56.50		9.9242E+00
			-56.00		10.116E+00
			-55.50		10.304E+00
			-55.00		10.488E+00
			-54.50		10.678E+00
			-54.00		10.870E+00
			-53.50		11.058E+00
			-53.00		11.242E+00
			-52.50		11.555E+00
			-52.00		11.940E+00
			-51.50		12.192E+00
			-51.00		12.383E+00
			-50.50		12.696E+00
			-50.00		13.062E+00
			-49.50		13.440E+00
			-49.00		13.825E+00
			-48.50		14.325E+00
			-48.00		14.879E+00
			-47.50		15.323E+00
			-47.00		15.704E+00
			-46.50		16.206E+00
			-46.00		16.772E+00
			-45.50		17.466E+00
			-45.00		18.227E+00
			-44.50		18.979E+00
			-44.00		19.725E+00
			-43.50		20.595E+00
			-43.00		21.528E+00
			-42.50		22.717E+00
			-42.00		24.050E+00
			-41.50		25.488E+00
			-41.00		26.981E+00
			-40.50		28.952E+00
			-40.00		31.191E+00
			-39.50		33.783E+00
			-39.00		36.899E+00
			-38.50		40.782E+00
			-38.00		45.879E+00
			-37.50		52.459E+00
			-37.00		60.828E+00
			-36.50		71.081E+00
			-36.00		84.185E+00
			-35.50		99.679E+00
			-35.00		116.61E+00
			-34.50		134.95E+00
			-34.00		154.55E+00
			-33.50		175.00E+00
			-33.00		195.26E+00
			-32.50		215.49E+00
			-32.00		234.85E+00
			-31.50		252.70E+00
			-31.00		269.09E+00
			-30.50		284.70E+00
			-30.00		298.39E+00
			-29.50		309.18E+00
			-29.00		317.98E+00
			-28.50		325.62E+00
			-28.00		331.66E+00
			-27.50		336.27E+00
			-27.00		339.76E+00
			-26.50		342.84E+00
			-26.00		345.50E+00
			-25.50		347.56E+00
			-25.00		349.38E+00
			-24.50		351.22E+00
			-24.00		352.92E+00
			-23.50		354.22E+00
			-23.00		355.30E+00
			-22.50		356.40E+00
			-22.00		357.42E+00
			-21.50		358.24E+00
			-21.00		359.11E+00
			-20.50		360.12E+00
			-20.00		360.97E+00
			-19.50		361.72E+00
			-19.00		362.48E+00
			-18.50		363.12E+00
			-18.00		363.93E+00
			-17.50		364.92E+00
			-17.00		365.53E+00
			-16.50		365.91E+00
			-16.00		366.59E+00
			-15.50		367.31E+00
			-15.00		367.79E+00
			-14.50		368.35E+00
			-14.00		369.14E+00
			-13.50		369.61E+00
			-13.00		369.90E+00
			-12.50		370.61E+00
			-12.00		371.24E+00
			-11.50		371.47E+00
			-11.00		371.87E+00
			-10.50		372.36E+00
			-10.00		372.66E+00
			-9.50		372.98E+00
			-9.00		373.53E+00
			-8.50		374.01E+00
			-8.00		374.20E+00
			-7.50		374.48E+00
			-7.00		374.80E+00
			-6.50		374.96E+00
			-6.00		375.30E+00
			-5.50		375.89E+00
			-5.00		376.30E+00
			-4.50		376.34E+00
			-4.00		376.37E+00
			-3.50		376.70E+00
			-3.00		376.99E+00
			-2.50		376.94E+00
			-2.00		376.94E+00
			-1.50		377.22E+00
			-1.00		377.34E+00
			-0.50		377.16E+00
			0.00		377.13E+00
			0.50		377.22E+00
			1.00		377.07E+00
			1.50		376.91E+00
			2.00		376.94E+00
			2.50		376.84E+00
			3.00		376.59E+00
			3.50		376.37E+00
			4.00		376.25E+00
			4.50		376.09E+00
			5.00		375.84E+00
			5.50		375.68E+00
			6.00		375.47E+00
			6.50		374.93E+00
			7.00		374.45E+00
			7.50		374.40E+00
			8.00		374.25E+00
			8.50		373.65E+00
			9.00		373.09E+00
			9.50		372.92E+00
			10.00		372.92E+00
			10.50		372.73E+00
			11.00		372.45E+00
			11.50		371.98E+00
			12.00		371.17E+00
			12.50		370.42E+00
			13.00		370.00E+00
			13.50		369.66E+00
			14.00		369.10E+00
			14.50		368.49E+00
			15.00		367.99E+00
			15.50		367.40E+00
			16.00		366.73E+00
			16.50		366.07E+00
			17.00		365.36E+00
			17.50		364.61E+00
			18.00		363.91E+00
			18.50		363.37E+00
			19.00		362.71E+00
			19.50		361.84E+00
			20.00		361.14E+00
			20.50		360.40E+00
			21.00		359.18E+00
			21.50		357.89E+00
			22.00		356.84E+00
			22.50		355.78E+00
			23.00		354.48E+00
			23.50		352.99E+00
			24.00		351.47E+00
			24.50		349.71E+00
			25.00		347.53E+00
			25.50		345.24E+00
			26.00		342.78E+00
			26.50		339.57E+00
			27.00		335.68E+00
			27.50		331.86E+00
			28.00		327.18E+00
			28.50		321.14E+00
			29.00		313.59E+00
			29.50		305.47E+00
			30.00		295.25E+00
			30.50		282.69E+00
			31.00		268.50E+00
			31.50		252.33E+00
			32.00		234.10E+00
			32.50		214.50E+00
			33.00		194.77E+00
			33.50		174.91E+00
			34.00		154.94E+00
			34.50		135.71E+00
			35.00		117.86E+00
			35.50		101.26E+00
			36.00		86.047E+00
			36.50		72.416E+00
			37.00		61.054E+00
			37.50		51.514E+00
			38.00		43.910E+00
			38.50		38.020E+00
			39.00		33.701E+00
			39.50		30.642E+00
			40.00		28.022E+00
			40.50		26.157E+00
			41.00		24.664E+00
			41.50		23.510E+00
			42.00		22.549E+00
			42.50		21.606E+00
			43.00		20.673E+00
			43.50		19.858E+00
			44.00		19.104E+00
			44.50		18.475E+00
			45.00		17.910E+00
			45.50		17.345E+00
			46.00		16.779E+00
			46.50		16.333E+00
			47.00		15.948E+00
			47.50		15.577E+00
			48.00		15.211E+00
			48.50		14.833E+00
			49.00		14.448E+00
			49.50		13.948E+00
			50.00		13.394E+00
			50.50		13.075E+00
			51.00		12.888E+00
			51.50		12.576E+00
			52.00		12.187E+00
			52.50		11.937E+00
			53.00		11.753E+00
			53.50		11.445E+00
			54.00		11.068E+00
			54.50		10.811E+00
			55.00		10.623E+00
			55.50		10.436E+00
			56.00		10.249E+00
			56.50		9.9396E+00
			57.00		9.5550E+00
			57.50		9.4242E+00
			58.00		9.4242E+00
			58.50		9.3037E+00
			59.00		9.1095E+00
			59.50		8.9229E+00
			60.00		8.7398E+00
		END_DATA
	END_SCAN  2
	BEGIN_SCAN  3
		TASK_NAME=tba PDD Profiles
		PROGRAM=WaterTankScans
		COMMENT=FBF_SanPietro
		MEAS_DATE=08-Feb-2021 09:38:10
		LINAC=MRIdian
		MODALITY=X
		ISOCENTER=900.00
		INPLANE_AXIS=Y
		CROSSPLANE_AXIS=X
		DEPTH_AXIS=Depth
		INPLANE_AXIS_DIR=TARGET_GUN
		CROSSPLANE_AXIS_DIR=LEFT_RIGHT
		DEPTH_AXIS_DIR=UP_DOWN
		ENERGY=6.00
		NOMINAL_DMAX=15.00
		SSD=850.00
		SCD=450.00
		WEDGE_ANGLE=0.00
		FIELD_INPLANE=66.40
		FIELD_CROSSPLANE=66.40
		FIELD_TYPE=RECTANGULAR
		GANTRY=0.00
		GANTRY_UPRIGHT_POSITION=0
		GANTRY_ROTATION=CW
		COLL_ANGLE=0.00
		COLL_OFFSET_INPLANE=0.00
		COLL_OFFSET_CROSSPLANE=0.00
		SCAN_DEVICE=BeamScan
		SCAN_DEVICE_SETUP=BARA_LEFT_RIGHT
		ELECTROMETER=BeamScan
		RANGE_FIELD=LOW
		RANGE_REFERENCE=MEDIUM
		DETECTOR=THIMBLE_CHAMBER
		DETECTOR_RADIUS=2.40
		DETECTOR_NAME=A28MR
		DETECTOR_SN=-
		DETECTOR_CALIBRATION=588000000.00
		DETECTOR_IS_CALIBRATED=0
		DETECTOR_REFERENCE=THIMBLE_CHAMBER
		DETECTOR_REFERENCE_RADIUS=2.75
		DETECTOR_REFERENCE_NAME=A28MR
		DETECTOR_REFERENCE_SN=ÃƒÂ¢Ã¢â€šÂ¬Ã¢â‚¬
		DETECTOR_REFERENCE_IS_CALIBRATED=0
		DETECTOR_REFERENCE_CALIBRATION=303000000.00
		DETECTOR_HV=300.0
		DETECTOR_REFERENCE_HV=300.0
		DETECTOR_ORIENTATION=HORIZONTAL
		FILTER=FFF
		SCAN_SPEED_PROFILE=10.00
		SCAN_PROF_SPEED_DEP=DEPTH
		SCAN_SPEED_PDD=0.00
		SCAN_PDD_SPEED_DEP=ENERGY
		DETECTOR_TYPE=A28MR
		REF_FIELD_DEPTH=220.00
		REF_FIELD_DEFINED=ISOCENTER
		REF_FIELD_INPLANE=100.00
		REF_FIELD_CROSSPLANE=100.00
		REF_SCAN_POSITIONS=-85.00;-84.00;-83.00;-82.00;-81.00;-80.00;-79.00;-78.00;-77.00;-76.00;-75.00;-74.00;-73.00;-72.00;-71.00;-70.00;-69.00;-68.00;-67.00;-66.00;-65.00;-64.00;-63.00;-62.00;-61.00;-60.00;-59.00;-58.00;-57.00;-56.00;-55.00;-54.00;-53.00;-52.00;-51.00;-50.00;-49.00;-48.00;-47.00;-46.00;-45.00;-44.00;-43.00;-42.00;-41.00;-40.00;-39.00;-38.00;-37.00;-36.00;-35.00;-34.00;-33.00;-32.00;-31.00;-30.00;-29.00;-28.00;-27.00;-26.00;-25.00;-24.00;-23.00;-22.00;-21.00;-20.00;-19.00;-18.00;-17.00;-16.00;-15.00;-14.00;-13.00;-12.00;-11.00;-10.00;-9.00;-8.00;-7.00;-6.00;-5.00;-4.00;-3.00;-2.00;-1.00;0.00;1.00;2.00;3.00;4.00;5.00;6.00;7.00;8.00;9.00;10.00;11.00;12.00;13.00;14.00;15.00;16.00;17.00;18.00;19.00;20.00;21.00;22.00;23.00;24.00;25.00;26.00;27.00;28.00;29.00;30.00;31.00;32.00;33.00;34.00;35.00;36.00;37.00;38.00;39.00;40.00;41.00;42.00;43.00;44.00;45.00;46.00;47.00;48.00;49.00;50.00;51.00;52.00;53.00;54.00;55.00;56.00;57.00;58.00;59.00;60.00;61.00;62.00;63.00;64.00;65.00;66.00;67.00;68.00;69.00;70.00;71.00;72.00;73.00;74.00;75.00;76.00;77.00;78.00;79.00;80.00;81.00;82.00;83.00;84.00;85.00;
		REF_OVERSCAN_FACTOR=1.00
		SCAN_CURVETYPE=CROSSPLANE_PROFILE
		SCAN_DEPTH=100.00
		SCAN_OFFAXIS_INPLANE=0.00
		SCAN_OFFAXIS_CROSSPLANE=0.00
		SCAN_ANGLE=0.00
		SCAN_DIAGONAL=NOT_DIAGONAL
		SCAN_DIRECTION=POSITIVE
		MEAS_MEDIUM=WATER
		MEAS_PRESET=MEAS_CONTINUOUS_REFERENCE_SCAN
		MEAS_TIME=0.100
		MEAS_UNIT=A.U.
		INCLINATION_ANGLE=0.00
		PRESSURE=1013.25
		TEMPERATURE=20.00
		NORM_TEMPERATURE=20.00
		CORRECTION_FACTOR=1.0000
		EXPECTED_MAX_DOSE_RATE=3.00
		EPOM_DEPTH_SHIFT=0.2
		EPOM_MODE=SHIFT_PROTOCOL
		CORRECTIONS=CAX_CORR;SMOOTHED_CORR;INTERPOLATED_CORR;
		BEGIN_DATA
			-59.50		10.882E+00
			-59.00		11.116E+00
			-58.50		11.329E+00
			-58.00		11.533E+00
			-57.50		11.748E+00
			-57.00		11.968E+00
			-56.50		12.200E+00
			-56.00		12.437E+00
			-55.50		12.707E+00
			-55.00		12.993E+00
			-54.50		13.256E+00
			-54.00		13.509E+00
			-53.50		13.806E+00
			-53.00		14.125E+00
			-52.50		14.444E+00
			-52.00		14.762E+00
			-51.50		15.098E+00
			-51.00		15.443E+00
			-50.50		15.834E+00
			-50.00		16.248E+00
			-49.50		16.673E+00
			-49.00		17.101E+00
			-48.50		17.548E+00
			-48.00		18.003E+00
			-47.50		18.520E+00
			-47.00		19.069E+00
			-46.50		19.668E+00
			-46.00		20.287E+00
			-45.50		21.010E+00
			-45.00		21.785E+00
			-44.50		22.669E+00
			-44.00		23.607E+00
			-43.50		24.695E+00
			-43.00		25.846E+00
			-42.50		27.240E+00
			-42.00		28.771E+00
			-41.50		30.703E+00
			-41.00		32.842E+00
			-40.50		35.705E+00
			-40.00		38.942E+00
			-39.50		43.024E+00
			-39.00		48.410E+00
			-38.50		54.908E+00
			-38.00		63.020E+00
			-37.50		72.828E+00
			-37.00		84.040E+00
			-36.50		96.369E+00
			-36.00		109.39E+00
			-35.50		123.24E+00
			-35.00		137.58E+00
			-34.50		151.59E+00
			-34.00		165.39E+00
			-33.50		178.95E+00
			-33.00		191.87E+00
			-32.50		203.40E+00
			-32.00		213.99E+00
			-31.50		223.45E+00
			-31.00		231.35E+00
			-30.50		237.31E+00
			-30.00		242.34E+00
			-29.50		246.79E+00
			-29.00		250.49E+00
			-28.50		253.06E+00
			-28.00		255.28E+00
			-27.50		257.39E+00
			-27.00		259.16E+00
			-26.50		260.58E+00
			-26.00		261.84E+00
			-25.50		262.99E+00
			-25.00		263.99E+00
			-24.50		264.88E+00
			-24.00		265.78E+00
			-23.50		266.63E+00
			-23.00		267.33E+00
			-22.50		267.99E+00
			-22.00		268.75E+00
			-21.50		269.52E+00
			-21.00		270.19E+00
			-20.50		270.86E+00
			-20.00		271.58E+00
			-19.50		272.24E+00
			-19.00		272.81E+00
			-18.50		273.38E+00
			-18.00		273.92E+00
			-17.50		274.38E+00
			-17.00		274.84E+00
			-16.50		275.40E+00
			-16.00		275.98E+00
			-15.50		276.46E+00
			-15.00		276.84E+00
			-14.50		277.12E+00
			-14.00		277.40E+00
			-13.50		277.79E+00
			-13.00		278.32E+00
			-12.50		278.80E+00
			-12.00		279.16E+00
			-11.50		279.57E+00
			-11.00		279.97E+00
			-10.50		280.16E+00
			-10.00		280.27E+00
			-9.50		280.53E+00
			-9.00		280.84E+00
			-8.50		281.09E+00
			-8.00		281.36E+00
			-7.50		281.70E+00
			-7.00		281.97E+00
			-6.50		282.19E+00
			-6.00		282.51E+00
			-5.50		282.83E+00
			-5.00		283.02E+00
			-4.50		283.15E+00
			-4.00		283.35E+00
			-3.50		283.54E+00
			-3.00		283.59E+00
			-2.50		283.61E+00
			-2.00		283.72E+00
			-1.50		283.81E+00
			-1.00		283.84E+00
			-0.50		283.86E+00
			0.00		283.83E+00
			0.50		283.76E+00
			1.00		283.75E+00
			1.50		283.74E+00
			2.00		283.64E+00
			2.50		283.53E+00
			3.00		283.41E+00
			3.50		283.16E+00
			4.00		282.84E+00
			4.50		282.64E+00
			5.00		282.57E+00
			5.50		282.43E+00
			6.00		282.22E+00
			6.50		282.03E+00
			7.00		281.83E+00
			7.50		281.54E+00
			8.00		281.28E+00
			8.50		281.12E+00
			9.00		280.91E+00
			9.50		280.53E+00
			10.00		280.18E+00
			10.50		280.01E+00
			11.00		279.84E+00
			11.50		279.54E+00
			12.00		279.21E+00
			12.50		278.95E+00
			13.00		278.61E+00
			13.50		278.13E+00
			14.00		277.67E+00
			14.50		277.33E+00
			15.00		276.99E+00
			15.50		276.53E+00
			16.00		276.04E+00
			16.50		275.56E+00
			17.00		275.04E+00
			17.50		274.50E+00
			18.00		274.06E+00
			18.50		273.62E+00
			19.00		273.03E+00
			19.50		272.36E+00
			20.00		271.78E+00
			20.50		271.22E+00
			21.00		270.55E+00
			21.50		269.83E+00
			22.00		269.15E+00
			22.50		268.43E+00
			23.00		267.60E+00
			23.50		266.72E+00
			24.00		265.76E+00
			24.50		264.60E+00
			25.00		263.32E+00
			25.50		262.07E+00
			26.00		260.75E+00
			26.50		259.16E+00
			27.00		257.31E+00
			27.50		255.27E+00
			28.00		252.91E+00
			28.50		250.10E+00
			29.00		246.76E+00
			29.50		243.20E+00
			30.00		239.10E+00
			30.50		234.14E+00
			31.00		227.74E+00
			31.50		220.89E+00
			32.00		212.57E+00
			32.50		202.43E+00
			33.00		191.12E+00
			33.50		178.94E+00
			34.00		165.76E+00
			34.50		151.66E+00
			35.00		137.64E+00
			35.50		123.61E+00
			36.00		109.94E+00
			36.50		97.160E+00
			37.00		85.147E+00
			37.50		74.068E+00
			38.00		64.131E+00
			38.50		55.271E+00
			39.00		47.778E+00
			39.50		41.783E+00
			40.00		37.059E+00
			40.50		33.627E+00
			41.00		30.660E+00
			41.50		28.502E+00
			42.00		26.761E+00
			42.50		25.463E+00
			43.00		24.338E+00
			43.50		23.413E+00
			44.00		22.589E+00
			44.50		21.882E+00
			45.00		21.229E+00
			45.50		20.652E+00
			46.00		20.108E+00
			46.50		19.575E+00
			47.00		19.046E+00
			47.50		18.544E+00
			48.00		18.052E+00
			48.50		17.618E+00
			49.00		17.213E+00
			49.50		16.844E+00
			50.00		16.491E+00
			50.50		16.115E+00
			51.00		15.726E+00
			51.50		15.386E+00
			52.00		15.071E+00
			52.50		14.744E+00
			53.00		14.411E+00
			53.50		14.102E+00
			54.00		13.805E+00
			54.50		13.544E+00
			55.00		13.298E+00
			55.50		13.029E+00
			56.00		12.746E+00
			56.50		12.479E+00
			57.00		12.219E+00
			57.50		11.980E+00
			58.00		11.751E+00
			58.50		11.524E+00
			59.00		11.298E+00
			59.50		11.114E+00
			60.00		10.948E+00
		END_DATA
	END_SCAN  3
END_SCAN_DATA
