BEGIN_SCAN_DATA
	FORMAT=CC-Export V1.9                  
	FILE_CREATION_DATE=26-Oct-2022 19:06:43
	LAST_MODIFIED=26-Oct-2022 19:06:43
	BEGIN_SCAN  1
		TASK_NAME=tba PDD Profiles
		PROGRAM=WaterTankScans
		COMMENT=Mater Olbia-corrected for Ref
		MEAS_DATE=08-Feb-2021 09:38:10
		LINAC=MRIdian
		MODALITY=X
		ISOCENTER=900.00
		INPLANE_AXIS=Y
		CROSSPLANE_AXIS=X
		DEPTH_AXIS=Depth
		INPLANE_AXIS_DIR=TARGET_GUN
		CROSSPLANE_AXIS_DIR=LEFT_RIGHT
		DEPTH_AXIS_DIR=UP_DOWN
		ENERGY=6.00
		NOMINAL_DMAX=15.00
		SSD=850.00
		SCD=450.00
		WEDGE_ANGLE=0.00
		FIELD_INPLANE=66.40
		FIELD_CROSSPLANE=66.40
		FIELD_TYPE=RECTANGULAR
		GANTRY=0.00
		GANTRY_UPRIGHT_POSITION=0
		GANTRY_ROTATION=CW
		COLL_ANGLE=0.00
		COLL_OFFSET_INPLANE=0.00
		COLL_OFFSET_CROSSPLANE=0.00
		SCAN_DEVICE=BeamScan
		SCAN_DEVICE_SETUP=BARA_LEFT_RIGHT
		ELECTROMETER=BeamScan
		RANGE_FIELD=LOW
		RANGE_REFERENCE=MEDIUM
		DETECTOR=THIMBLE_CHAMBER
		DETECTOR_RADIUS=2.40
		DETECTOR_NAME=A28MR
		DETECTOR_SN=-
		DETECTOR_CALIBRATION=588000000.00
		DETECTOR_IS_CALIBRATED=0
		DETECTOR_REFERENCE=THIMBLE_CHAMBER
		DETECTOR_REFERENCE_RADIUS=2.75
		DETECTOR_REFERENCE_NAME=A28MR
		DETECTOR_REFERENCE_SN=Ã¢â‚¬â€
		DETECTOR_REFERENCE_IS_CALIBRATED=0
		DETECTOR_REFERENCE_CALIBRATION=303000000.00
		DETECTOR_HV=300.0
		DETECTOR_REFERENCE_HV=300.0
		DETECTOR_ORIENTATION=HORIZONTAL
		FILTER=FFF
		SCAN_SPEED_PROFILE=10.00
		SCAN_PROF_SPEED_DEP=DEPTH
		SCAN_SPEED_PDD=0.00
		SCAN_PDD_SPEED_DEP=ENERGY
		DETECTOR_TYPE=A28MR
		REF_FIELD_DEPTH=220.00
		REF_FIELD_DEFINED=ISOCENTER
		REF_FIELD_INPLANE=100.00
		REF_FIELD_CROSSPLANE=100.00
		REF_SCAN_POSITIONS=-85.00;-84.00;-83.00;-82.00;-81.00;-80.00;-79.00;-78.00;-77.00;-76.00;-75.00;-74.00;-73.00;-72.00;-71.00;-70.00;-69.00;-68.00;-67.00;-66.00;-65.00;-64.00;-63.00;-62.00;-61.00;-60.00;-59.00;-58.00;-57.00;-56.00;-55.00;-54.00;-53.00;-52.00;-51.00;-50.00;-49.00;-48.00;-47.00;-46.00;-45.00;-44.00;-43.00;-42.00;-41.00;-40.00;-39.00;-38.00;-37.00;-36.00;-35.00;-34.00;-33.00;-32.00;-31.00;-30.00;-29.00;-28.00;-27.00;-26.00;-25.00;-24.00;-23.00;-22.00;-21.00;-20.00;-19.00;-18.00;-17.00;-16.00;-15.00;-14.00;-13.00;-12.00;-11.00;-10.00;-9.00;-8.00;-7.00;-6.00;-5.00;-4.00;-3.00;-2.00;-1.00;0.00;1.00;2.00;3.00;4.00;5.00;6.00;7.00;8.00;9.00;10.00;11.00;12.00;13.00;14.00;15.00;16.00;17.00;18.00;19.00;20.00;21.00;22.00;23.00;24.00;25.00;26.00;27.00;28.00;29.00;30.00;31.00;32.00;33.00;34.00;35.00;36.00;37.00;38.00;39.00;40.00;41.00;42.00;43.00;44.00;45.00;46.00;47.00;48.00;49.00;50.00;51.00;52.00;53.00;54.00;55.00;56.00;57.00;58.00;59.00;60.00;61.00;62.00;63.00;64.00;65.00;66.00;67.00;68.00;69.00;70.00;71.00;72.00;73.00;74.00;75.00;76.00;77.00;78.00;79.00;80.00;81.00;82.00;83.00;84.00;85.00;
		REF_OVERSCAN_FACTOR=1.00
		SCAN_CURVETYPE=INPLANE_PROFILE
		SCAN_DEPTH=20.00
		SCAN_OFFAXIS_INPLANE=0.00
		SCAN_OFFAXIS_CROSSPLANE=0.00
		SCAN_ANGLE=0.00
		SCAN_DIAGONAL=NOT_DIAGONAL
		SCAN_DIRECTION=POSITIVE
		MEAS_MEDIUM=WATER
		MEAS_PRESET=MEAS_CONTINUOUS_REFERENCE_SCAN
		MEAS_TIME=0.100
		MEAS_UNIT=A.U.
		INCLINATION_ANGLE=0.00
		PRESSURE=1013.25
		TEMPERATURE=20.00
		NORM_TEMPERATURE=20.00
		CORRECTION_FACTOR=1.0000
		EXPECTED_MAX_DOSE_RATE=3.00
		EPOM_DEPTH_SHIFT=0.2
		EPOM_MODE=SHIFT_PROTOCOL
		CORRECTIONS=SMOOTHED_CORR;CAX_CORR;INTERPOLATED_CORR;
		BEGIN_DATA
			-60.00		6.1332E+00
			-59.50		6.0752E+00
			-59.00		6.0585E+00
			-58.50		6.1723E+00
			-58.00		6.2846E+00
			-57.50		6.3904E+00
			-57.00		6.5076E+00
			-56.50		6.6767E+00
			-56.00		6.8430E+00
			-55.50		6.9976E+00
			-55.00		7.1500E+00
			-54.50		7.2941E+00
			-54.00		7.4502E+00
			-53.50		7.6545E+00
			-53.00		7.8607E+00
			-52.50		8.0741E+00
			-52.00		8.2883E+00
			-51.50		8.5058E+00
			-51.00		8.7359E+00
			-50.50		9.0165E+00
			-50.00		9.2962E+00
			-49.50		9.5727E+00
			-49.00		9.8509E+00
			-48.50		10.135E+00
			-48.00		10.429E+00
			-47.50		10.756E+00
			-47.00		11.094E+00
			-46.50		11.479E+00
			-46.00		11.889E+00
			-45.50		12.398E+00
			-45.00		12.885E+00
			-44.50		13.279E+00
			-44.00		13.730E+00
			-43.50		14.409E+00
			-43.00		15.102E+00
			-42.50		15.846E+00
			-42.00		16.694E+00
			-41.50		17.915E+00
			-41.00		19.242E+00
			-40.50		20.908E+00
			-40.00		22.813E+00
			-39.50		25.566E+00
			-39.00		28.732E+00
			-38.50		33.363E+00
			-38.00		38.650E+00
			-37.50		46.266E+00
			-37.00		54.946E+00
			-36.50		67.398E+00
			-36.00		80.735E+00
			-35.50		97.616E+00
			-35.00		115.04E+00
			-34.50		134.63E+00
			-34.00		154.52E+00
			-33.50		175.81E+00
			-33.00		197.10E+00
			-32.50		218.40E+00
			-32.00		239.42E+00
			-31.50		259.35E+00
			-31.00		278.75E+00
			-30.50		296.07E+00
			-30.00		312.55E+00
			-29.50		326.08E+00
			-29.00		339.08E+00
			-28.50		350.15E+00
			-28.00		360.52E+00
			-27.50		368.40E+00
			-27.00		375.81E+00
			-26.50		381.53E+00
			-26.00		386.92E+00
			-25.50		391.10E+00
			-25.00		395.03E+00
			-24.50		398.06E+00
			-24.00		401.02E+00
			-23.50		403.67E+00
			-23.00		406.08E+00
			-22.50		407.46E+00
			-22.00		408.82E+00
			-21.50		410.07E+00
			-21.00		411.32E+00
			-20.50		412.56E+00
			-20.00		413.77E+00
			-19.50		414.90E+00
			-19.00		415.96E+00
			-18.50		416.82E+00
			-18.00		417.61E+00
			-17.50		418.19E+00
			-17.00		418.77E+00
			-16.50		419.33E+00
			-16.00		419.94E+00
			-15.50		420.68E+00
			-15.00		421.41E+00
			-14.50		422.10E+00
			-14.00		422.73E+00
			-13.50		423.13E+00
			-13.00		423.50E+00
			-12.50		423.72E+00
			-12.00		423.95E+00
			-11.50		424.24E+00
			-11.00		424.55E+00
			-10.50		424.97E+00
			-10.00		425.41E+00
			-9.50		425.90E+00
			-9.00		426.37E+00
			-8.50		426.75E+00
			-8.00		427.10E+00
			-7.50		427.33E+00
			-7.00		427.57E+00
			-6.50		427.85E+00
			-6.00		428.13E+00
			-5.50		428.47E+00
			-5.00		428.78E+00
			-4.50		428.96E+00
			-4.00		429.12E+00
			-3.50		429.23E+00
			-3.00		429.37E+00
			-2.50		429.66E+00
			-2.00		429.95E+00
			-1.50		430.28E+00
			-1.00		430.56E+00
			-0.50		430.65E+00
			0.00		430.70E+00
			0.50		430.55E+00
			1.00		430.40E+00
			1.50		430.16E+00
			2.00		429.94E+00
			2.50		429.78E+00
			3.00		429.64E+00
			3.50		429.64E+00
			4.00		429.64E+00
			4.50		429.66E+00
			5.00		429.65E+00
			5.50		429.52E+00
			6.00		429.36E+00
			6.50		429.08E+00
			7.00		428.79E+00
			7.50		428.48E+00
			8.00		428.16E+00
			8.50		427.82E+00
			9.00		427.46E+00
			9.50		427.05E+00
			10.00		426.63E+00
			10.50		426.19E+00
			11.00		425.73E+00
			11.50		425.24E+00
			12.00		424.73E+00
			12.50		424.13E+00
			13.00		423.54E+00
			13.50		422.96E+00
			14.00		422.39E+00
			14.50		421.91E+00
			15.00		421.41E+00
			15.50		420.86E+00
			16.00		420.28E+00
			16.50		419.58E+00
			17.00		418.85E+00
			17.50		418.04E+00
			18.00		417.20E+00
			18.50		416.30E+00
			19.00		415.39E+00
			19.50		414.43E+00
			20.00		413.47E+00
			20.50		412.49E+00
			21.00		411.48E+00
			21.50		410.41E+00
			22.00		409.31E+00
			22.50		408.14E+00
			23.00		406.83E+00
			23.50		404.95E+00
			24.00		403.06E+00
			24.50		401.16E+00
			25.00		399.04E+00
			25.50		395.90E+00
			26.00		392.55E+00
			26.50		388.36E+00
			27.00		383.77E+00
			27.50		377.39E+00
			28.00		370.40E+00
			28.50		360.61E+00
			29.00		349.95E+00
			29.50		335.34E+00
			30.00		319.96E+00
			30.50		301.49E+00
			31.00		282.41E+00
			31.50		261.13E+00
			32.00		239.77E+00
			32.50		218.15E+00
			33.00		196.67E+00
			33.50		175.78E+00
			34.00		155.37E+00
			34.50		136.95E+00
			35.00		119.18E+00
			35.50		104.42E+00
			36.00		90.184E+00
			36.50		78.336E+00
			37.00		67.087E+00
			37.50		58.561E+00
			38.00		50.454E+00
			38.50		44.246E+00
			39.00		38.348E+00
			39.50		33.867E+00
			40.00		29.646E+00
			40.50		26.608E+00
			41.00		23.759E+00
			41.50		21.772E+00
			42.00		19.911E+00
			42.50		18.498E+00
			43.00		17.186E+00
			43.50		16.229E+00
			44.00		15.309E+00
			44.50		14.534E+00
			45.00		13.829E+00
			45.50		13.372E+00
			46.00		12.910E+00
			46.50		12.430E+00
			47.00		11.948E+00
			47.50		11.460E+00
			48.00		10.996E+00
			48.50		10.628E+00
			49.00		10.291E+00
			49.50		10.081E+00
			50.00		9.8685E+00
			50.50		9.6402E+00
			51.00		9.4012E+00
			51.50		9.1190E+00
			52.00		8.8446E+00
			52.50		8.6008E+00
			53.00		8.3811E+00
			53.50		8.2466E+00
			54.00		8.0995E+00
			54.50		7.9075E+00
			55.00		7.7187E+00
			55.50		7.5408E+00
			56.00		7.3523E+00
			56.50		7.1261E+00
			57.00		6.9174E+00
			57.50		6.7708E+00
			58.00		6.6230E+00
			58.50		6.4706E+00
			59.00		6.3268E+00
			59.50		6.2171E+00
		END_DATA
	END_SCAN  1
	BEGIN_SCAN  2
		TASK_NAME=tba PDD Profiles
		PROGRAM=WaterTankScans
		COMMENT=Mater Olbia-corrected for Ref
		MEAS_DATE=08-Feb-2021 09:38:10
		LINAC=MRIdian
		MODALITY=X
		ISOCENTER=900.00
		INPLANE_AXIS=Y
		CROSSPLANE_AXIS=X
		DEPTH_AXIS=Depth
		INPLANE_AXIS_DIR=TARGET_GUN
		CROSSPLANE_AXIS_DIR=LEFT_RIGHT
		DEPTH_AXIS_DIR=UP_DOWN
		ENERGY=6.00
		NOMINAL_DMAX=15.00
		SSD=850.00
		SCD=450.00
		WEDGE_ANGLE=0.00
		FIELD_INPLANE=66.40
		FIELD_CROSSPLANE=66.40
		FIELD_TYPE=RECTANGULAR
		GANTRY=0.00
		GANTRY_UPRIGHT_POSITION=0
		GANTRY_ROTATION=CW
		COLL_ANGLE=0.00
		COLL_OFFSET_INPLANE=0.00
		COLL_OFFSET_CROSSPLANE=0.00
		SCAN_DEVICE=BeamScan
		SCAN_DEVICE_SETUP=BARA_LEFT_RIGHT
		ELECTROMETER=BeamScan
		RANGE_FIELD=LOW
		RANGE_REFERENCE=MEDIUM
		DETECTOR=THIMBLE_CHAMBER
		DETECTOR_RADIUS=2.40
		DETECTOR_NAME=A28MR
		DETECTOR_SN=-
		DETECTOR_CALIBRATION=588000000.00
		DETECTOR_IS_CALIBRATED=0
		DETECTOR_REFERENCE=THIMBLE_CHAMBER
		DETECTOR_REFERENCE_RADIUS=2.75
		DETECTOR_REFERENCE_NAME=A28MR
		DETECTOR_REFERENCE_SN=Ã¢â‚¬â€
		DETECTOR_REFERENCE_IS_CALIBRATED=0
		DETECTOR_REFERENCE_CALIBRATION=303000000.00
		DETECTOR_HV=300.0
		DETECTOR_REFERENCE_HV=300.0
		DETECTOR_ORIENTATION=HORIZONTAL
		FILTER=FFF
		SCAN_SPEED_PROFILE=10.00
		SCAN_PROF_SPEED_DEP=DEPTH
		SCAN_SPEED_PDD=0.00
		SCAN_PDD_SPEED_DEP=ENERGY
		DETECTOR_TYPE=A28MR
		REF_FIELD_DEPTH=220.00
		REF_FIELD_DEFINED=ISOCENTER
		REF_FIELD_INPLANE=100.00
		REF_FIELD_CROSSPLANE=100.00
		REF_SCAN_POSITIONS=-85.00;-84.00;-83.00;-82.00;-81.00;-80.00;-79.00;-78.00;-77.00;-76.00;-75.00;-74.00;-73.00;-72.00;-71.00;-70.00;-69.00;-68.00;-67.00;-66.00;-65.00;-64.00;-63.00;-62.00;-61.00;-60.00;-59.00;-58.00;-57.00;-56.00;-55.00;-54.00;-53.00;-52.00;-51.00;-50.00;-49.00;-48.00;-47.00;-46.00;-45.00;-44.00;-43.00;-42.00;-41.00;-40.00;-39.00;-38.00;-37.00;-36.00;-35.00;-34.00;-33.00;-32.00;-31.00;-30.00;-29.00;-28.00;-27.00;-26.00;-25.00;-24.00;-23.00;-22.00;-21.00;-20.00;-19.00;-18.00;-17.00;-16.00;-15.00;-14.00;-13.00;-12.00;-11.00;-10.00;-9.00;-8.00;-7.00;-6.00;-5.00;-4.00;-3.00;-2.00;-1.00;0.00;1.00;2.00;3.00;4.00;5.00;6.00;7.00;8.00;9.00;10.00;11.00;12.00;13.00;14.00;15.00;16.00;17.00;18.00;19.00;20.00;21.00;22.00;23.00;24.00;25.00;26.00;27.00;28.00;29.00;30.00;31.00;32.00;33.00;34.00;35.00;36.00;37.00;38.00;39.00;40.00;41.00;42.00;43.00;44.00;45.00;46.00;47.00;48.00;49.00;50.00;51.00;52.00;53.00;54.00;55.00;56.00;57.00;58.00;59.00;60.00;61.00;62.00;63.00;64.00;65.00;66.00;67.00;68.00;69.00;70.00;71.00;72.00;73.00;74.00;75.00;76.00;77.00;78.00;79.00;80.00;81.00;82.00;83.00;84.00;85.00;
		REF_OVERSCAN_FACTOR=1.00
		SCAN_CURVETYPE=INPLANE_PROFILE
		SCAN_DEPTH=55.00
		SCAN_OFFAXIS_INPLANE=0.00
		SCAN_OFFAXIS_CROSSPLANE=0.00
		SCAN_ANGLE=0.00
		SCAN_DIAGONAL=NOT_DIAGONAL
		SCAN_DIRECTION=POSITIVE
		MEAS_MEDIUM=WATER
		MEAS_PRESET=MEAS_CONTINUOUS_REFERENCE_SCAN
		MEAS_TIME=0.100
		MEAS_UNIT=A.U.
		INCLINATION_ANGLE=0.00
		PRESSURE=1013.25
		TEMPERATURE=20.00
		NORM_TEMPERATURE=20.00
		CORRECTION_FACTOR=1.0000
		EXPECTED_MAX_DOSE_RATE=3.00
		EPOM_DEPTH_SHIFT=0.2
		EPOM_MODE=SHIFT_PROTOCOL
		CORRECTIONS=SMOOTHED_CORR;CAX_CORR;INTERPOLATED_CORR;
		BEGIN_DATA
			-60.00		8.7668E+00
			-59.50		8.7633E+00
			-59.00		8.7988E+00
			-58.50		9.0391E+00
			-58.00		9.2753E+00
			-57.50		9.4814E+00
			-57.00		9.6887E+00
			-56.50		9.9053E+00
			-56.00		10.122E+00
			-55.50		10.336E+00
			-55.00		10.553E+00
			-54.50		10.790E+00
			-54.00		11.033E+00
			-53.50		11.320E+00
			-53.00		11.614E+00
			-52.50		11.945E+00
			-52.00		12.272E+00
			-51.50		12.582E+00
			-51.00		12.905E+00
			-50.50		13.323E+00
			-50.00		13.737E+00
			-49.50		14.123E+00
			-49.00		14.510E+00
			-48.50		14.901E+00
			-48.00		15.311E+00
			-47.50		15.863E+00
			-47.00		16.408E+00
			-46.50		16.910E+00
			-46.00		17.430E+00
			-45.50		18.088E+00
			-45.00		18.736E+00
			-44.50		19.310E+00
			-44.00		19.942E+00
			-43.50		20.988E+00
			-43.00		22.064E+00
			-42.50		23.357E+00
			-42.00		24.726E+00
			-41.50		26.654E+00
			-41.00		28.723E+00
			-40.50		31.656E+00
			-40.00		34.839E+00
			-39.50		39.564E+00
			-39.00		44.681E+00
			-38.50		52.212E+00
			-38.00		60.201E+00
			-37.50		71.012E+00
			-37.00		82.210E+00
			-36.50		95.790E+00
			-36.00		109.63E+00
			-35.50		125.36E+00
			-35.00		141.13E+00
			-34.50		157.34E+00
			-34.00		173.55E+00
			-33.50		189.75E+00
			-33.00		205.77E+00
			-32.50		220.42E+00
			-32.00		234.79E+00
			-31.50		247.02E+00
			-31.00		258.98E+00
			-30.50		268.87E+00
			-30.00		278.41E+00
			-29.50		286.11E+00
			-29.00		293.56E+00
			-28.50		299.52E+00
			-28.00		305.31E+00
			-27.50		310.02E+00
			-27.00		314.46E+00
			-26.50		317.23E+00
			-26.00		319.96E+00
			-25.50		322.45E+00
			-25.00		324.86E+00
			-24.50		326.68E+00
			-24.00		328.44E+00
			-23.50		329.73E+00
			-23.00		331.02E+00
			-22.50		332.31E+00
			-22.00		333.58E+00
			-21.50		334.71E+00
			-21.00		335.82E+00
			-20.50		336.76E+00
			-20.00		337.67E+00
			-19.50		338.42E+00
			-19.00		339.16E+00
			-18.50		339.85E+00
			-18.00		340.54E+00
			-17.50		341.24E+00
			-17.00		341.94E+00
			-16.50		342.57E+00
			-16.00		343.18E+00
			-15.50		343.67E+00
			-15.00		344.15E+00
			-14.50		344.55E+00
			-14.00		344.95E+00
			-13.50		345.34E+00
			-13.00		345.73E+00
			-12.50		346.14E+00
			-12.00		346.55E+00
			-11.50		346.95E+00
			-11.00		347.34E+00
			-10.50		347.68E+00
			-10.00		348.01E+00
			-9.50		348.26E+00
			-9.00		348.52E+00
			-8.50		348.79E+00
			-8.00		349.09E+00
			-7.50		349.53E+00
			-7.00		349.99E+00
			-6.50		350.52E+00
			-6.00		351.04E+00
			-5.50		351.41E+00
			-5.00		351.74E+00
			-4.50		351.87E+00
			-4.00		351.98E+00
			-3.50		351.98E+00
			-3.00		351.98E+00
			-2.50		351.99E+00
			-2.00		352.01E+00
			-1.50		352.05E+00
			-1.00		352.09E+00
			-0.50		352.09E+00
			0.00		352.08E+00
			0.50		352.00E+00
			1.00		351.92E+00
			1.50		351.89E+00
			2.00		351.85E+00
			2.50		351.86E+00
			3.00		351.86E+00
			3.50		351.77E+00
			4.00		351.67E+00
			4.50		351.46E+00
			5.00		351.26E+00
			5.50		351.03E+00
			6.00		350.80E+00
			6.50		350.56E+00
			7.00		350.32E+00
			7.50		350.01E+00
			8.00		349.71E+00
			8.50		349.44E+00
			9.00		349.18E+00
			9.50		349.02E+00
			10.00		348.85E+00
			10.50		348.61E+00
			11.00		348.34E+00
			11.50		347.85E+00
			12.00		347.35E+00
			12.50		346.75E+00
			13.00		346.15E+00
			13.50		345.58E+00
			14.00		345.01E+00
			14.50		344.47E+00
			15.00		343.93E+00
			15.50		343.38E+00
			16.00		342.83E+00
			16.50		342.25E+00
			17.00		341.67E+00
			17.50		341.10E+00
			18.00		340.53E+00
			18.50		339.91E+00
			19.00		339.27E+00
			19.50		338.46E+00
			20.00		337.64E+00
			20.50		336.69E+00
			21.00		335.74E+00
			21.50		334.76E+00
			22.00		333.77E+00
			22.50		332.68E+00
			23.00		331.57E+00
			23.50		330.29E+00
			24.00		328.98E+00
			24.50		327.42E+00
			25.00		325.84E+00
			25.50		323.96E+00
			26.00		322.10E+00
			26.50		320.26E+00
			27.00		318.28E+00
			27.50		315.16E+00
			28.00		311.86E+00
			28.50		306.95E+00
			29.00		301.74E+00
			29.50		293.88E+00
			30.00		285.79E+00
			30.50		276.07E+00
			31.00		265.79E+00
			31.50		252.08E+00
			32.00		238.12E+00
			32.50		222.38E+00
			33.00		206.55E+00
			33.50		190.11E+00
			34.00		173.74E+00
			34.50		157.85E+00
			35.00		142.07E+00
			35.50		127.22E+00
			36.00		112.68E+00
			36.50		100.45E+00
			37.00		88.434E+00
			37.50		78.310E+00
			38.00		68.454E+00
			38.50		61.006E+00
			39.00		53.760E+00
			39.50		48.344E+00
			40.00		43.050E+00
			40.50		38.861E+00
			41.00		34.801E+00
			41.50		31.899E+00
			42.00		29.098E+00
			42.50		26.917E+00
			43.00		24.844E+00
			43.50		23.435E+00
			44.00		22.071E+00
			44.50		21.031E+00
			45.00		20.026E+00
			45.50		19.238E+00
			46.00		18.467E+00
			46.50		17.802E+00
			47.00		17.160E+00
			47.50		16.697E+00
			48.00		16.224E+00
			48.50		15.685E+00
			49.00		15.154E+00
			49.50		14.698E+00
			50.00		14.255E+00
			50.50		13.902E+00
			51.00		13.555E+00
			51.50		13.251E+00
			52.00		12.934E+00
			52.50		12.527E+00
			53.00		12.140E+00
			53.50		11.908E+00
			54.00		11.671E+00
			54.50		11.396E+00
			55.00		11.113E+00
			55.50		10.774E+00
			56.00		10.455E+00
			56.50		10.283E+00
			57.00		10.097E+00
			57.50		9.8254E+00
			58.00		9.5658E+00
			58.50		9.3798E+00
			59.00		9.1941E+00
			59.50		9.0105E+00
		END_DATA
	END_SCAN  2
	BEGIN_SCAN  3
		TASK_NAME=tba PDD Profiles
		PROGRAM=WaterTankScans
		COMMENT=Mater Olbia-corrected for Ref
		MEAS_DATE=08-Feb-2021 09:38:10
		LINAC=MRIdian
		MODALITY=X
		ISOCENTER=900.00
		INPLANE_AXIS=Y
		CROSSPLANE_AXIS=X
		DEPTH_AXIS=Depth
		INPLANE_AXIS_DIR=TARGET_GUN
		CROSSPLANE_AXIS_DIR=LEFT_RIGHT
		DEPTH_AXIS_DIR=UP_DOWN
		ENERGY=6.00
		NOMINAL_DMAX=15.00
		SSD=850.00
		SCD=450.00
		WEDGE_ANGLE=0.00
		FIELD_INPLANE=66.40
		FIELD_CROSSPLANE=66.40
		FIELD_TYPE=RECTANGULAR
		GANTRY=0.00
		GANTRY_UPRIGHT_POSITION=0
		GANTRY_ROTATION=CW
		COLL_ANGLE=0.00
		COLL_OFFSET_INPLANE=0.00
		COLL_OFFSET_CROSSPLANE=0.00
		SCAN_DEVICE=BeamScan
		SCAN_DEVICE_SETUP=BARA_LEFT_RIGHT
		ELECTROMETER=BeamScan
		RANGE_FIELD=LOW
		RANGE_REFERENCE=MEDIUM
		DETECTOR=THIMBLE_CHAMBER
		DETECTOR_RADIUS=2.40
		DETECTOR_NAME=A28MR
		DETECTOR_SN=-
		DETECTOR_CALIBRATION=588000000.00
		DETECTOR_IS_CALIBRATED=0
		DETECTOR_REFERENCE=THIMBLE_CHAMBER
		DETECTOR_REFERENCE_RADIUS=2.75
		DETECTOR_REFERENCE_NAME=A28MR
		DETECTOR_REFERENCE_SN=Ã¢â‚¬â€
		DETECTOR_REFERENCE_IS_CALIBRATED=0
		DETECTOR_REFERENCE_CALIBRATION=303000000.00
		DETECTOR_HV=300.0
		DETECTOR_REFERENCE_HV=300.0
		DETECTOR_ORIENTATION=HORIZONTAL
		FILTER=FFF
		SCAN_SPEED_PROFILE=10.00
		SCAN_PROF_SPEED_DEP=DEPTH
		SCAN_SPEED_PDD=0.00
		SCAN_PDD_SPEED_DEP=ENERGY
		DETECTOR_TYPE=A28MR
		REF_FIELD_DEPTH=220.00
		REF_FIELD_DEFINED=ISOCENTER
		REF_FIELD_INPLANE=100.00
		REF_FIELD_CROSSPLANE=100.00
		REF_SCAN_POSITIONS=-85.00;-84.00;-83.00;-82.00;-81.00;-80.00;-79.00;-78.00;-77.00;-76.00;-75.00;-74.00;-73.00;-72.00;-71.00;-70.00;-69.00;-68.00;-67.00;-66.00;-65.00;-64.00;-63.00;-62.00;-61.00;-60.00;-59.00;-58.00;-57.00;-56.00;-55.00;-54.00;-53.00;-52.00;-51.00;-50.00;-49.00;-48.00;-47.00;-46.00;-45.00;-44.00;-43.00;-42.00;-41.00;-40.00;-39.00;-38.00;-37.00;-36.00;-35.00;-34.00;-33.00;-32.00;-31.00;-30.00;-29.00;-28.00;-27.00;-26.00;-25.00;-24.00;-23.00;-22.00;-21.00;-20.00;-19.00;-18.00;-17.00;-16.00;-15.00;-14.00;-13.00;-12.00;-11.00;-10.00;-9.00;-8.00;-7.00;-6.00;-5.00;-4.00;-3.00;-2.00;-1.00;0.00;1.00;2.00;3.00;4.00;5.00;6.00;7.00;8.00;9.00;10.00;11.00;12.00;13.00;14.00;15.00;16.00;17.00;18.00;19.00;20.00;21.00;22.00;23.00;24.00;25.00;26.00;27.00;28.00;29.00;30.00;31.00;32.00;33.00;34.00;35.00;36.00;37.00;38.00;39.00;40.00;41.00;42.00;43.00;44.00;45.00;46.00;47.00;48.00;49.00;50.00;51.00;52.00;53.00;54.00;55.00;56.00;57.00;58.00;59.00;60.00;61.00;62.00;63.00;64.00;65.00;66.00;67.00;68.00;69.00;70.00;71.00;72.00;73.00;74.00;75.00;76.00;77.00;78.00;79.00;80.00;81.00;82.00;83.00;84.00;85.00;
		REF_OVERSCAN_FACTOR=1.00
		SCAN_CURVETYPE=INPLANE_PROFILE
		SCAN_DEPTH=100.00
		SCAN_OFFAXIS_INPLANE=0.00
		SCAN_OFFAXIS_CROSSPLANE=0.00
		SCAN_ANGLE=0.00
		SCAN_DIAGONAL=NOT_DIAGONAL
		SCAN_DIRECTION=POSITIVE
		MEAS_MEDIUM=WATER
		MEAS_PRESET=MEAS_CONTINUOUS_REFERENCE_SCAN
		MEAS_TIME=0.100
		MEAS_UNIT=A.U.
		INCLINATION_ANGLE=0.00
		PRESSURE=1013.25
		TEMPERATURE=20.00
		NORM_TEMPERATURE=20.00
		CORRECTION_FACTOR=1.0000
		EXPECTED_MAX_DOSE_RATE=3.00
		EPOM_DEPTH_SHIFT=0.2
		EPOM_MODE=SHIFT_PROTOCOL
		CORRECTIONS=SMOOTHED_CORR;CAX_CORR;INTERPOLATED_CORR;
		BEGIN_DATA
			-60.00		10.906E+00
			-59.50		11.061E+00
			-59.00		11.216E+00
			-58.50		11.371E+00
			-58.00		11.525E+00
			-57.50		11.741E+00
			-57.00		11.957E+00
			-56.50		12.172E+00
			-56.00		12.390E+00
			-55.50		12.723E+00
			-55.00		13.056E+00
			-54.50		13.354E+00
			-54.00		13.654E+00
			-53.50		14.007E+00
			-53.00		14.357E+00
			-52.50		14.620E+00
			-52.00		14.887E+00
			-51.50		15.233E+00
			-51.00		15.579E+00
			-50.50		15.904E+00
			-50.00		16.231E+00
			-49.50		16.668E+00
			-49.00		17.109E+00
			-48.50		17.623E+00
			-48.00		18.137E+00
			-47.50		18.649E+00
			-47.00		19.162E+00
			-46.50		19.643E+00
			-46.00		20.125E+00
			-45.50		21.015E+00
			-45.00		21.904E+00
			-44.50		22.773E+00
			-44.00		23.654E+00
			-43.50		25.091E+00
			-43.00		26.541E+00
			-42.50		28.591E+00
			-42.00		30.666E+00
			-41.50		33.979E+00
			-41.00		37.361E+00
			-40.50		42.398E+00
			-40.00		47.518E+00
			-39.50		54.607E+00
			-39.00		61.742E+00
			-38.50		71.151E+00
			-38.00		80.621E+00
			-37.50		91.569E+00
			-37.00		102.55E+00
			-36.50		114.19E+00
			-36.00		125.83E+00
			-35.50		137.21E+00
			-35.00		148.59E+00
			-34.50		159.23E+00
			-34.00		169.84E+00
			-33.50		179.33E+00
			-33.00		188.79E+00
			-32.50		196.04E+00
			-32.00		203.27E+00
			-31.50		209.49E+00
			-31.00		215.67E+00
			-30.50		220.01E+00
			-30.00		224.34E+00
			-29.50		228.36E+00
			-29.00		232.31E+00
			-28.50		234.74E+00
			-28.00		237.16E+00
			-27.50		239.33E+00
			-27.00		241.49E+00
			-26.50		242.93E+00
			-26.00		244.36E+00
			-25.50		245.56E+00
			-25.00		246.76E+00
			-24.50		247.72E+00
			-24.00		248.67E+00
			-23.50		249.49E+00
			-23.00		250.32E+00
			-22.50		251.01E+00
			-22.00		251.70E+00
			-21.50		252.27E+00
			-21.00		252.83E+00
			-20.50		253.40E+00
			-20.00		253.96E+00
			-19.50		254.59E+00
			-19.00		255.22E+00
			-18.50		255.78E+00
			-18.00		256.34E+00
			-17.50		256.77E+00
			-17.00		257.19E+00
			-16.50		257.64E+00
			-16.00		258.09E+00
			-15.50		258.61E+00
			-15.00		259.12E+00
			-14.50		259.55E+00
			-14.00		259.98E+00
			-13.50		260.27E+00
			-13.00		260.55E+00
			-12.50		260.79E+00
			-12.00		261.03E+00
			-11.50		261.30E+00
			-11.00		261.57E+00
			-10.50		261.86E+00
			-10.00		262.14E+00
			-9.50		262.39E+00
			-9.00		262.64E+00
			-8.50		262.89E+00
			-8.00		263.15E+00
			-7.50		263.44E+00
			-7.00		263.74E+00
			-6.50		263.96E+00
			-6.00		264.17E+00
			-5.50		264.28E+00
			-5.00		264.39E+00
			-4.50		264.52E+00
			-4.00		264.66E+00
			-3.50		264.84E+00
			-3.00		265.03E+00
			-2.50		265.13E+00
			-2.00		265.24E+00
			-1.50		265.23E+00
			-1.00		265.21E+00
			-0.50		265.21E+00
			0.00		265.20E+00
			0.50		265.27E+00
			1.00		265.33E+00
			1.50		265.37E+00
			2.00		265.41E+00
			2.50		265.31E+00
			3.00		265.21E+00
			3.50		265.00E+00
			4.00		264.80E+00
			4.50		264.57E+00
			5.00		264.35E+00
			5.50		264.18E+00
			6.00		264.02E+00
			6.50		263.92E+00
			7.00		263.82E+00
			7.50		263.71E+00
			8.00		263.59E+00
			8.50		263.44E+00
			9.00		263.28E+00
			9.50		263.08E+00
			10.00		262.87E+00
			10.50		262.59E+00
			11.00		262.30E+00
			11.50		261.94E+00
			12.00		261.59E+00
			12.50		261.21E+00
			13.00		260.84E+00
			13.50		260.45E+00
			14.00		260.07E+00
			14.50		259.68E+00
			15.00		259.30E+00
			15.50		258.85E+00
			16.00		258.39E+00
			16.50		257.86E+00
			17.00		257.32E+00
			17.50		256.81E+00
			18.00		256.29E+00
			18.50		255.82E+00
			19.00		255.35E+00
			19.50		254.84E+00
			20.00		254.34E+00
			20.50		253.74E+00
			21.00		253.14E+00
			21.50		252.47E+00
			22.00		251.81E+00
			22.50		251.14E+00
			23.00		250.46E+00
			23.50		249.67E+00
			24.00		248.89E+00
			24.50		247.93E+00
			25.00		246.98E+00
			25.50		245.88E+00
			26.00		244.78E+00
			26.50		243.58E+00
			27.00		242.39E+00
			27.50		240.91E+00
			28.00		239.43E+00
			28.50		237.23E+00
			29.00		235.03E+00
			29.50		232.32E+00
			30.00		229.53E+00
			30.50		225.12E+00
			31.00		220.67E+00
			31.50		214.80E+00
			32.00		208.87E+00
			32.50		200.47E+00
			33.00		192.04E+00
			33.50		181.90E+00
			34.00		171.73E+00
			34.50		160.34E+00
			35.00		148.95E+00
			35.50		137.37E+00
			36.00		125.80E+00
			36.50		114.61E+00
			37.00		103.41E+00
			37.50		93.681E+00
			38.00		83.952E+00
			38.50		75.562E+00
			39.00		67.172E+00
			39.50		60.428E+00
			40.00		53.684E+00
			40.50		48.750E+00
			41.00		43.840E+00
			41.50		40.138E+00
			42.00		36.469E+00
			42.50		33.570E+00
			43.00		30.704E+00
			43.50		28.628E+00
			44.00		26.565E+00
			44.50		25.153E+00
			45.00		23.759E+00
			45.50		22.788E+00
			46.00		21.819E+00
			46.50		20.899E+00
			47.00		19.986E+00
			47.50		19.396E+00
			48.00		18.807E+00
			48.50		18.305E+00
			49.00		17.804E+00
			49.50		17.333E+00
			50.00		16.863E+00
			50.50		16.511E+00
			51.00		16.158E+00
			51.50		15.751E+00
			52.00		15.346E+00
			52.50		14.987E+00
			53.00		14.629E+00
			53.50		14.340E+00
			54.00		14.049E+00
			54.50		13.719E+00
			55.00		13.393E+00
			55.50		13.145E+00
			56.00		12.894E+00
			56.50		12.567E+00
			57.00		12.244E+00
			57.50		12.037E+00
			58.00		11.831E+00
			58.50		11.666E+00
			59.00		11.498E+00
			59.50		11.198E+00
		END_DATA
	END_SCAN  3
END_SCAN_DATA
