BEGIN_SCAN_DATA
	FORMAT=CC-Export V1.9                  
	FILE_CREATION_DATE=30-Oct-2022 19:08:42
	LAST_MODIFIED=30-Oct-2022 19:08:42
	BEGIN_SCAN  1
		TASK_NAME=tba PDD Profiles
		PROGRAM=WaterTankScans
		COMMENT=Gemelli
		MEAS_DATE=08-Feb-2021 09:38:10
		LINAC=MRIdian
		MODALITY=X
		ISOCENTER=900.00
		INPLANE_AXIS=Y
		CROSSPLANE_AXIS=X
		DEPTH_AXIS=Depth
		INPLANE_AXIS_DIR=TARGET_GUN
		CROSSPLANE_AXIS_DIR=LEFT_RIGHT
		DEPTH_AXIS_DIR=UP_DOWN
		ENERGY=6.00
		NOMINAL_DMAX=15.00
		SSD=850.00
		SCD=450.00
		WEDGE_ANGLE=0.00
		FIELD_INPLANE=66.40
		FIELD_CROSSPLANE=66.40
		FIELD_TYPE=RECTANGULAR
		GANTRY=0.00
		GANTRY_UPRIGHT_POSITION=0
		GANTRY_ROTATION=CW
		COLL_ANGLE=0.00
		COLL_OFFSET_INPLANE=0.00
		COLL_OFFSET_CROSSPLANE=0.00
		SCAN_DEVICE=BeamScan
		SCAN_DEVICE_SETUP=BARA_LEFT_RIGHT
		ELECTROMETER=BeamScan
		RANGE_FIELD=LOW
		RANGE_REFERENCE=MEDIUM
		DETECTOR=THIMBLE_CHAMBER
		DETECTOR_RADIUS=2.40
		DETECTOR_NAME=A28MR
		DETECTOR_SN=-
		DETECTOR_CALIBRATION=588000000.00
		DETECTOR_IS_CALIBRATED=0
		DETECTOR_REFERENCE=THIMBLE_CHAMBER
		DETECTOR_REFERENCE_RADIUS=2.75
		DETECTOR_REFERENCE_NAME=A28MR
		DETECTOR_REFERENCE_SN=Ã¢â‚¬â€
		DETECTOR_REFERENCE_IS_CALIBRATED=0
		DETECTOR_REFERENCE_CALIBRATION=303000000.00
		DETECTOR_HV=300.0
		DETECTOR_REFERENCE_HV=300.0
		DETECTOR_ORIENTATION=HORIZONTAL
		FILTER=FFF
		SCAN_SPEED_PROFILE=10.00
		SCAN_PROF_SPEED_DEP=DEPTH
		SCAN_SPEED_PDD=0.00
		SCAN_PDD_SPEED_DEP=ENERGY
		DETECTOR_TYPE=A28MR
		REF_FIELD_DEPTH=220.00
		REF_FIELD_DEFINED=ISOCENTER
		REF_FIELD_INPLANE=100.00
		REF_FIELD_CROSSPLANE=100.00
		REF_SCAN_POSITIONS=-85.00;-84.00;-83.00;-82.00;-81.00;-80.00;-79.00;-78.00;-77.00;-76.00;-75.00;-74.00;-73.00;-72.00;-71.00;-70.00;-69.00;-68.00;-67.00;-66.00;-65.00;-64.00;-63.00;-62.00;-61.00;-60.00;-59.00;-58.00;-57.00;-56.00;-55.00;-54.00;-53.00;-52.00;-51.00;-50.00;-49.00;-48.00;-47.00;-46.00;-45.00;-44.00;-43.00;-42.00;-41.00;-40.00;-39.00;-38.00;-37.00;-36.00;-35.00;-34.00;-33.00;-32.00;-31.00;-30.00;-29.00;-28.00;-27.00;-26.00;-25.00;-24.00;-23.00;-22.00;-21.00;-20.00;-19.00;-18.00;-17.00;-16.00;-15.00;-14.00;-13.00;-12.00;-11.00;-10.00;-9.00;-8.00;-7.00;-6.00;-5.00;-4.00;-3.00;-2.00;-1.00;0.00;1.00;2.00;3.00;4.00;5.00;6.00;7.00;8.00;9.00;10.00;11.00;12.00;13.00;14.00;15.00;16.00;17.00;18.00;19.00;20.00;21.00;22.00;23.00;24.00;25.00;26.00;27.00;28.00;29.00;30.00;31.00;32.00;33.00;34.00;35.00;36.00;37.00;38.00;39.00;40.00;41.00;42.00;43.00;44.00;45.00;46.00;47.00;48.00;49.00;50.00;51.00;52.00;53.00;54.00;55.00;56.00;57.00;58.00;59.00;60.00;61.00;62.00;63.00;64.00;65.00;66.00;67.00;68.00;69.00;70.00;71.00;72.00;73.00;74.00;75.00;76.00;77.00;78.00;79.00;80.00;81.00;82.00;83.00;84.00;85.00;
		REF_OVERSCAN_FACTOR=1.00
		SCAN_CURVETYPE=INPLANE_PROFILE
		SCAN_DEPTH=20.00
		SCAN_OFFAXIS_INPLANE=0.00
		SCAN_OFFAXIS_CROSSPLANE=0.00
		SCAN_ANGLE=0.00
		SCAN_DIAGONAL=NOT_DIAGONAL
		SCAN_DIRECTION=POSITIVE
		MEAS_MEDIUM=WATER
		MEAS_PRESET=MEAS_CONTINUOUS_REFERENCE_SCAN
		MEAS_TIME=0.100
		MEAS_UNIT=A.U.
		INCLINATION_ANGLE=0.00
		PRESSURE=1013.25
		TEMPERATURE=20.00
		NORM_TEMPERATURE=20.00
		CORRECTION_FACTOR=1.0000
		EXPECTED_MAX_DOSE_RATE=3.00
		EPOM_DEPTH_SHIFT=0.2
		EPOM_MODE=SHIFT_PROTOCOL
		CORRECTIONS=MODIFIED_CORR;SMOOTHED_CORR;CAX_CORR;INTERPOLATED_CORR;
		BEGIN_DATA
			-60.00		5.4500E+00
			-59.50		5.4500E+00
			-59.00		5.5911E+00
			-58.50		5.7987E+00
			-58.00		5.8692E+00
			-57.50		5.8692E+00
			-57.00		6.0076E+00
			-56.50		6.2172E+00
			-56.00		6.2885E+00
			-55.50		6.2885E+00
			-55.00		6.4240E+00
			-54.50		6.6357E+00
			-54.00		6.8460E+00
			-53.50		7.0556E+00
			-53.00		7.2653E+00
			-52.50		7.4749E+00
			-52.00		7.5461E+00
			-51.50		7.5461E+00
			-51.00		7.6845E+00
			-50.50		7.8941E+00
			-50.00		8.2421E+00
			-49.50		8.6613E+00
			-49.00		8.9422E+00
			-48.50		9.1518E+00
			-48.00		9.3614E+00
			-47.50		9.5710E+00
			-47.00		9.9162E+00
			-46.50		10.331E+00
			-46.00		10.749E+00
			-45.50		11.168E+00
			-45.00		11.588E+00
			-44.50		12.007E+00
			-44.00		12.564E+00
			-43.50		13.199E+00
			-43.00		13.826E+00
			-42.50		14.449E+00
			-42.00		15.210E+00
			-41.50		16.048E+00
			-41.00		17.163E+00
			-40.50		18.433E+00
			-40.00		19.972E+00
			-39.50		21.649E+00
			-39.00		24.018E+00
			-38.50		26.743E+00
			-38.00		31.266E+00
			-37.50		36.716E+00
			-37.00		45.071E+00
			-36.50		54.923E+00
			-36.00		67.957E+00
			-35.50		82.630E+00
			-35.00		99.262E+00
			-34.50		116.90E+00
			-34.00		136.40E+00
			-33.50		156.94E+00
			-33.00		177.89E+00
			-32.50		199.06E+00
			-32.00		219.82E+00
			-31.50		240.36E+00
			-31.00		258.85E+00
			-30.50		276.29E+00
			-30.00		292.18E+00
			-29.50		307.22E+00
			-29.00		320.35E+00
			-28.50		332.51E+00
			-28.00		342.45E+00
			-27.50		351.26E+00
			-27.00		358.95E+00
			-26.50		366.08E+00
			-26.00		371.96E+00
			-25.50		377.20E+00
			-25.00		381.47E+00
			-24.50		385.25E+00
			-24.00		388.61E+00
			-23.50		391.75E+00
			-23.00		394.03E+00
			-22.50		395.87E+00
			-22.00		397.55E+00
			-21.50		399.14E+00
			-21.00		400.57E+00
			-20.50		401.91E+00
			-20.00		403.12E+00
			-19.50		404.26E+00
			-19.00		405.28E+00
			-18.50		406.24E+00
			-18.00		407.10E+00
			-17.50		407.91E+00
			-17.00		408.68E+00
			-16.50		409.41E+00
			-16.00		410.11E+00
			-15.50		410.78E+00
			-15.00		411.40E+00
			-14.50		412.00E+00
			-14.00		412.58E+00
			-13.50		413.16E+00
			-13.00		413.71E+00
			-12.50		414.26E+00
			-12.00		414.77E+00
			-11.50		415.26E+00
			-11.00		415.70E+00
			-10.50		416.12E+00
			-10.00		416.51E+00
			-9.50		416.89E+00
			-9.00		417.27E+00
			-8.50		417.65E+00
			-8.00		418.03E+00
			-7.50		418.41E+00
			-7.00		418.74E+00
			-6.50		419.04E+00
			-6.00		419.26E+00
			-5.50		419.43E+00
			-5.00		419.54E+00
			-4.50		419.62E+00
			-4.00		419.69E+00
			-3.50		419.76E+00
			-3.00		419.81E+00
			-2.50		419.87E+00
			-2.00		419.85E+00
			-1.50		419.80E+00
			-1.00		419.69E+00
			-0.50		419.54E+00
			0.00		419.41E+00
			0.50		419.28E+00
			1.00		419.14E+00
			1.50		418.99E+00
			2.00		418.81E+00
			2.50		418.60E+00
			3.00		418.39E+00
			3.50		418.18E+00
			4.00		417.97E+00
			4.50		417.76E+00
			5.00		417.50E+00
			5.50		417.21E+00
			6.00		416.90E+00
			6.50		416.57E+00
			7.00		416.28E+00
			7.50		416.00E+00
			8.00		415.76E+00
			8.50		415.54E+00
			9.00		415.31E+00
			9.50		415.09E+00
			10.00		414.84E+00
			10.50		414.56E+00
			11.00		414.24E+00
			11.50		413.88E+00
			12.00		413.49E+00
			12.50		413.07E+00
			13.00		412.62E+00
			13.50		412.14E+00
			14.00		411.65E+00
			14.50		411.14E+00
			15.00		410.61E+00
			15.50		410.07E+00
			16.00		409.51E+00
			16.50		408.93E+00
			17.00		408.33E+00
			17.50		407.70E+00
			18.00		407.04E+00
			18.50		406.36E+00
			19.00		405.64E+00
			19.50		404.90E+00
			20.00		404.12E+00
			20.50		403.30E+00
			21.00		402.40E+00
			21.50		401.46E+00
			22.00		400.39E+00
			22.50		399.25E+00
			23.00		397.92E+00
			23.50		396.47E+00
			24.00		394.82E+00
			24.50		393.07E+00
			25.00		390.69E+00
			25.50		387.94E+00
			26.00		384.40E+00
			26.50		380.42E+00
			27.00		374.47E+00
			27.50		367.41E+00
			28.00		357.64E+00
			28.50		346.21E+00
			29.00		332.43E+00
			29.50		317.34E+00
			30.00		300.10E+00
			30.50		281.66E+00
			31.00		261.87E+00
			31.50		241.33E+00
			32.00		220.38E+00
			32.50		199.21E+00
			33.00		178.86E+00
			33.50		158.95E+00
			34.00		140.84E+00
			34.50		123.65E+00
			35.00		108.40E+00
			35.50		94.142E+00
			36.00		81.964E+00
			36.50		70.854E+00
			37.00		61.681E+00
			37.50		53.506E+00
			38.00		46.755E+00
			38.50		40.736E+00
			39.00		35.752E+00
			39.50		31.350E+00
			40.00		27.868E+00
			40.50		24.904E+00
			41.00		22.513E+00
			41.50		20.417E+00
			42.00		18.882E+00
			42.50		17.637E+00
			43.00		16.511E+00
			43.50		15.452E+00
			44.00		14.677E+00
			44.50		14.048E+00
			45.00		13.420E+00
			45.50		12.791E+00
			46.00		12.300E+00
			46.50		11.881E+00
			47.00		11.601E+00
			47.50		11.394E+00
			48.00		11.048E+00
			48.50		10.625E+00
			49.00		10.344E+00
			49.50		10.136E+00
			50.00		9.9274E+00
			50.50		9.7178E+00
			51.00		9.3740E+00
			51.50		8.9548E+00
			52.00		8.6697E+00
			52.50		8.4601E+00
			53.00		8.2504E+00
			53.50		8.0408E+00
			54.00		7.9654E+00
			54.50		7.9654E+00
			55.00		7.8299E+00
			55.50		7.6181E+00
			56.00		7.4078E+00
			56.50		7.1982E+00
			57.00		6.9899E+00
			57.50		6.7824E+00
			58.00		6.7077E+00
			58.50		6.7077E+00
			59.00		6.5693E+00
			59.50		6.3597E+00
		END_DATA
	END_SCAN  1
	BEGIN_SCAN  2
		TASK_NAME=tba PDD Profiles
		PROGRAM=WaterTankScans
		COMMENT=Gemelli
		MEAS_DATE=08-Feb-2021 09:38:10
		LINAC=MRIdian
		MODALITY=X
		ISOCENTER=900.00
		INPLANE_AXIS=Y
		CROSSPLANE_AXIS=X
		DEPTH_AXIS=Depth
		INPLANE_AXIS_DIR=TARGET_GUN
		CROSSPLANE_AXIS_DIR=LEFT_RIGHT
		DEPTH_AXIS_DIR=UP_DOWN
		ENERGY=6.00
		NOMINAL_DMAX=15.00
		SSD=850.00
		SCD=450.00
		WEDGE_ANGLE=0.00
		FIELD_INPLANE=66.40
		FIELD_CROSSPLANE=66.40
		FIELD_TYPE=RECTANGULAR
		GANTRY=0.00
		GANTRY_UPRIGHT_POSITION=0
		GANTRY_ROTATION=CW
		COLL_ANGLE=0.00
		COLL_OFFSET_INPLANE=0.00
		COLL_OFFSET_CROSSPLANE=0.00
		SCAN_DEVICE=BeamScan
		SCAN_DEVICE_SETUP=BARA_LEFT_RIGHT
		ELECTROMETER=BeamScan
		RANGE_FIELD=LOW
		RANGE_REFERENCE=MEDIUM
		DETECTOR=THIMBLE_CHAMBER
		DETECTOR_RADIUS=2.40
		DETECTOR_NAME=A28MR
		DETECTOR_SN=-
		DETECTOR_CALIBRATION=588000000.00
		DETECTOR_IS_CALIBRATED=0
		DETECTOR_REFERENCE=THIMBLE_CHAMBER
		DETECTOR_REFERENCE_RADIUS=2.75
		DETECTOR_REFERENCE_NAME=A28MR
		DETECTOR_REFERENCE_SN=Ã¢â‚¬â€
		DETECTOR_REFERENCE_IS_CALIBRATED=0
		DETECTOR_REFERENCE_CALIBRATION=303000000.00
		DETECTOR_HV=300.0
		DETECTOR_REFERENCE_HV=300.0
		DETECTOR_ORIENTATION=HORIZONTAL
		FILTER=FFF
		SCAN_SPEED_PROFILE=10.00
		SCAN_PROF_SPEED_DEP=DEPTH
		SCAN_SPEED_PDD=0.00
		SCAN_PDD_SPEED_DEP=ENERGY
		DETECTOR_TYPE=A28MR
		REF_FIELD_DEPTH=220.00
		REF_FIELD_DEFINED=ISOCENTER
		REF_FIELD_INPLANE=100.00
		REF_FIELD_CROSSPLANE=100.00
		REF_SCAN_POSITIONS=-85.00;-84.00;-83.00;-82.00;-81.00;-80.00;-79.00;-78.00;-77.00;-76.00;-75.00;-74.00;-73.00;-72.00;-71.00;-70.00;-69.00;-68.00;-67.00;-66.00;-65.00;-64.00;-63.00;-62.00;-61.00;-60.00;-59.00;-58.00;-57.00;-56.00;-55.00;-54.00;-53.00;-52.00;-51.00;-50.00;-49.00;-48.00;-47.00;-46.00;-45.00;-44.00;-43.00;-42.00;-41.00;-40.00;-39.00;-38.00;-37.00;-36.00;-35.00;-34.00;-33.00;-32.00;-31.00;-30.00;-29.00;-28.00;-27.00;-26.00;-25.00;-24.00;-23.00;-22.00;-21.00;-20.00;-19.00;-18.00;-17.00;-16.00;-15.00;-14.00;-13.00;-12.00;-11.00;-10.00;-9.00;-8.00;-7.00;-6.00;-5.00;-4.00;-3.00;-2.00;-1.00;0.00;1.00;2.00;3.00;4.00;5.00;6.00;7.00;8.00;9.00;10.00;11.00;12.00;13.00;14.00;15.00;16.00;17.00;18.00;19.00;20.00;21.00;22.00;23.00;24.00;25.00;26.00;27.00;28.00;29.00;30.00;31.00;32.00;33.00;34.00;35.00;36.00;37.00;38.00;39.00;40.00;41.00;42.00;43.00;44.00;45.00;46.00;47.00;48.00;49.00;50.00;51.00;52.00;53.00;54.00;55.00;56.00;57.00;58.00;59.00;60.00;61.00;62.00;63.00;64.00;65.00;66.00;67.00;68.00;69.00;70.00;71.00;72.00;73.00;74.00;75.00;76.00;77.00;78.00;79.00;80.00;81.00;82.00;83.00;84.00;85.00;
		REF_OVERSCAN_FACTOR=1.00
		SCAN_CURVETYPE=INPLANE_PROFILE
		SCAN_DEPTH=55.00
		SCAN_OFFAXIS_INPLANE=0.00
		SCAN_OFFAXIS_CROSSPLANE=0.00
		SCAN_ANGLE=0.00
		SCAN_DIAGONAL=NOT_DIAGONAL
		SCAN_DIRECTION=POSITIVE
		MEAS_MEDIUM=WATER
		MEAS_PRESET=MEAS_CONTINUOUS_REFERENCE_SCAN
		MEAS_TIME=0.100
		MEAS_UNIT=A.U.
		INCLINATION_ANGLE=0.00
		PRESSURE=1013.25
		TEMPERATURE=20.00
		NORM_TEMPERATURE=20.00
		CORRECTION_FACTOR=1.0000
		EXPECTED_MAX_DOSE_RATE=3.00
		EPOM_DEPTH_SHIFT=0.2
		EPOM_MODE=SHIFT_PROTOCOL
		CORRECTIONS=MODIFIED_CORR;SMOOTHED_CORR;CAX_CORR;INTERPOLATED_CORR;
		BEGIN_DATA
			-60.00		8.3898E+00
			-59.50		8.3898E+00
			-59.00		8.4231E+00
			-58.50		8.6307E+00
			-58.00		8.8093E+00
			-57.50		8.8093E+00
			-57.00		8.8387E+00
			-56.50		9.0484E+00
			-56.00		9.2870E+00
			-55.50		9.7023E+00
			-55.00		10.093E+00
			-54.50		10.305E+00
			-54.00		10.516E+00
			-53.50		10.724E+00
			-53.00		10.932E+00
			-52.50		11.144E+00
			-52.00		11.356E+00
			-51.50		11.565E+00
			-51.00		11.805E+00
			-50.50		12.224E+00
			-50.00		12.643E+00
			-49.50		13.063E+00
			-49.00		13.482E+00
			-48.50		13.902E+00
			-48.00		14.321E+00
			-47.50		14.741E+00
			-47.00		15.160E+00
			-46.50		15.580E+00
			-46.00		16.028E+00
			-45.50		16.651E+00
			-45.00		17.275E+00
			-44.50		17.904E+00
			-44.00		18.559E+00
			-43.50		19.407E+00
			-43.00		20.281E+00
			-42.50		21.319E+00
			-42.00		22.409E+00
			-41.50		23.877E+00
			-41.00		25.424E+00
			-40.50		27.542E+00
			-40.00		29.864E+00
			-39.50		33.429E+00
			-39.00		37.377E+00
			-38.50		43.669E+00
			-38.00		50.490E+00
			-37.50		60.558E+00
			-37.00		71.007E+00
			-36.50		83.802E+00
			-36.00		96.890E+00
			-35.50		111.78E+00
			-35.00		126.80E+00
			-34.50		142.58E+00
			-34.00		158.38E+00
			-33.50		174.27E+00
			-33.00		189.97E+00
			-32.50		204.50E+00
			-32.00		218.80E+00
			-31.50		231.30E+00
			-31.00		243.50E+00
			-30.50		253.88E+00
			-30.00		263.98E+00
			-29.50		271.95E+00
			-29.00		279.72E+00
			-28.50		286.08E+00
			-28.00		292.22E+00
			-27.50		297.05E+00
			-27.00		301.75E+00
			-26.50		305.69E+00
			-26.00		309.47E+00
			-25.50		311.98E+00
			-25.00		314.48E+00
			-24.50		316.81E+00
			-24.00		319.05E+00
			-23.50		320.73E+00
			-23.00		322.34E+00
			-22.50		323.57E+00
			-22.00		324.78E+00
			-21.50		325.90E+00
			-21.00		327.01E+00
			-20.50		327.96E+00
			-20.00		328.91E+00
			-19.50		329.72E+00
			-19.00		330.52E+00
			-18.50		331.27E+00
			-18.00		332.01E+00
			-17.50		332.73E+00
			-17.00		333.45E+00
			-16.50		334.12E+00
			-16.00		334.78E+00
			-15.50		335.37E+00
			-15.00		335.95E+00
			-14.50		336.49E+00
			-14.00		337.02E+00
			-13.50		337.52E+00
			-13.00		338.01E+00
			-12.50		338.44E+00
			-12.00		338.87E+00
			-11.50		339.26E+00
			-11.00		339.65E+00
			-10.50		340.03E+00
			-10.00		340.40E+00
			-9.50		340.71E+00
			-9.00		341.02E+00
			-8.50		341.27E+00
			-8.00		341.52E+00
			-7.50		341.78E+00
			-7.00		342.05E+00
			-6.50		342.32E+00
			-6.00		342.59E+00
			-5.50		342.80E+00
			-5.00		343.00E+00
			-4.50		343.13E+00
			-4.00		343.26E+00
			-3.50		343.35E+00
			-3.00		343.44E+00
			-2.50		343.48E+00
			-2.00		343.51E+00
			-1.50		343.47E+00
			-1.00		343.42E+00
			-0.50		343.33E+00
			0.00		343.24E+00
			0.50		343.12E+00
			1.00		343.00E+00
			1.50		342.84E+00
			2.00		342.68E+00
			2.50		342.48E+00
			3.00		342.29E+00
			3.50		342.10E+00
			4.00		341.92E+00
			4.50		341.79E+00
			5.00		341.66E+00
			5.50		341.53E+00
			6.00		341.39E+00
			6.50		341.22E+00
			7.00		341.05E+00
			7.50		340.85E+00
			8.00		340.64E+00
			8.50		340.37E+00
			9.00		340.08E+00
			9.50		339.73E+00
			10.00		339.38E+00
			10.50		339.07E+00
			11.00		338.76E+00
			11.50		338.50E+00
			12.00		338.23E+00
			12.50		337.91E+00
			13.00		337.59E+00
			13.50		337.20E+00
			14.00		336.80E+00
			14.50		336.36E+00
			15.00		335.90E+00
			15.50		335.36E+00
			16.00		334.81E+00
			16.50		334.18E+00
			17.00		333.55E+00
			17.50		332.92E+00
			18.00		332.29E+00
			18.50		331.66E+00
			19.00		331.02E+00
			19.50		330.30E+00
			20.00		329.57E+00
			20.50		328.77E+00
			21.00		327.96E+00
			21.50		327.14E+00
			22.00		326.30E+00
			22.50		325.37E+00
			23.00		324.42E+00
			23.50		323.28E+00
			24.00		322.11E+00
			24.50		320.72E+00
			25.00		319.30E+00
			25.50		317.70E+00
			26.00		316.02E+00
			26.50		313.71E+00
			27.00		311.25E+00
			27.50		307.69E+00
			28.00		303.90E+00
			28.50		298.44E+00
			29.00		292.61E+00
			29.50		284.01E+00
			30.00		275.01E+00
			30.50		263.06E+00
			31.00		250.84E+00
			31.50		236.72E+00
			32.00		222.42E+00
			32.50		206.59E+00
			33.00		190.71E+00
			33.50		174.55E+00
			34.00		158.52E+00
			34.50		143.21E+00
			35.00		128.16E+00
			35.50		114.74E+00
			36.00		101.67E+00
			36.50		90.761E+00
			37.00		80.189E+00
			37.50		71.675E+00
			38.00		63.369E+00
			38.50		56.589E+00
			39.00		50.061E+00
			39.50		45.077E+00
			40.00		40.233E+00
			40.50		36.420E+00
			41.00		32.788E+00
			41.50		30.271E+00
			42.00		27.844E+00
			42.50		25.975E+00
			43.00		24.153E+00
			43.50		22.670E+00
			44.00		21.277E+00
			44.50		20.438E+00
			45.00		19.599E+00
			45.50		18.760E+00
			46.00		17.950E+00
			46.50		17.321E+00
			47.00		16.721E+00
			47.50		16.301E+00
			48.00		15.882E+00
			48.50		15.462E+00
			49.00		15.044E+00
			49.50		14.628E+00
			50.00		14.212E+00
			50.50		13.788E+00
			51.00		13.366E+00
			51.50		12.950E+00
			52.00		12.559E+00
			52.50		12.347E+00
			53.00		12.136E+00
			53.50		11.929E+00
			54.00		11.695E+00
			54.50		11.271E+00
			55.00		10.877E+00
			55.50		10.668E+00
			56.00		10.458E+00
			56.50		10.248E+00
			57.00		10.038E+00
			57.50		9.8287E+00
			58.00		9.6190E+00
			58.50		9.4092E+00
			59.00		9.1995E+00
			59.50		8.9897E+00
		END_DATA
	END_SCAN  2
	BEGIN_SCAN  3
		TASK_NAME=tba PDD Profiles
		PROGRAM=WaterTankScans
		COMMENT=Gemelli
		MEAS_DATE=08-Feb-2021 09:38:10
		LINAC=MRIdian
		MODALITY=X
		ISOCENTER=900.00
		INPLANE_AXIS=Y
		CROSSPLANE_AXIS=X
		DEPTH_AXIS=Depth
		INPLANE_AXIS_DIR=TARGET_GUN
		CROSSPLANE_AXIS_DIR=LEFT_RIGHT
		DEPTH_AXIS_DIR=UP_DOWN
		ENERGY=6.00
		NOMINAL_DMAX=15.00
		SSD=850.00
		SCD=450.00
		WEDGE_ANGLE=0.00
		FIELD_INPLANE=66.40
		FIELD_CROSSPLANE=66.40
		FIELD_TYPE=RECTANGULAR
		GANTRY=0.00
		GANTRY_UPRIGHT_POSITION=0
		GANTRY_ROTATION=CW
		COLL_ANGLE=0.00
		COLL_OFFSET_INPLANE=0.00
		COLL_OFFSET_CROSSPLANE=0.00
		SCAN_DEVICE=BeamScan
		SCAN_DEVICE_SETUP=BARA_LEFT_RIGHT
		ELECTROMETER=BeamScan
		RANGE_FIELD=LOW
		RANGE_REFERENCE=MEDIUM
		DETECTOR=THIMBLE_CHAMBER
		DETECTOR_RADIUS=2.40
		DETECTOR_NAME=A28MR
		DETECTOR_SN=-
		DETECTOR_CALIBRATION=588000000.00
		DETECTOR_IS_CALIBRATED=0
		DETECTOR_REFERENCE=THIMBLE_CHAMBER
		DETECTOR_REFERENCE_RADIUS=2.75
		DETECTOR_REFERENCE_NAME=A28MR
		DETECTOR_REFERENCE_SN=Ã¢â‚¬â€
		DETECTOR_REFERENCE_IS_CALIBRATED=0
		DETECTOR_REFERENCE_CALIBRATION=303000000.00
		DETECTOR_HV=300.0
		DETECTOR_REFERENCE_HV=300.0
		DETECTOR_ORIENTATION=HORIZONTAL
		FILTER=FFF
		SCAN_SPEED_PROFILE=10.00
		SCAN_PROF_SPEED_DEP=DEPTH
		SCAN_SPEED_PDD=0.00
		SCAN_PDD_SPEED_DEP=ENERGY
		DETECTOR_TYPE=A28MR
		REF_FIELD_DEPTH=220.00
		REF_FIELD_DEFINED=ISOCENTER
		REF_FIELD_INPLANE=100.00
		REF_FIELD_CROSSPLANE=100.00
		REF_SCAN_POSITIONS=-85.00;-84.00;-83.00;-82.00;-81.00;-80.00;-79.00;-78.00;-77.00;-76.00;-75.00;-74.00;-73.00;-72.00;-71.00;-70.00;-69.00;-68.00;-67.00;-66.00;-65.00;-64.00;-63.00;-62.00;-61.00;-60.00;-59.00;-58.00;-57.00;-56.00;-55.00;-54.00;-53.00;-52.00;-51.00;-50.00;-49.00;-48.00;-47.00;-46.00;-45.00;-44.00;-43.00;-42.00;-41.00;-40.00;-39.00;-38.00;-37.00;-36.00;-35.00;-34.00;-33.00;-32.00;-31.00;-30.00;-29.00;-28.00;-27.00;-26.00;-25.00;-24.00;-23.00;-22.00;-21.00;-20.00;-19.00;-18.00;-17.00;-16.00;-15.00;-14.00;-13.00;-12.00;-11.00;-10.00;-9.00;-8.00;-7.00;-6.00;-5.00;-4.00;-3.00;-2.00;-1.00;0.00;1.00;2.00;3.00;4.00;5.00;6.00;7.00;8.00;9.00;10.00;11.00;12.00;13.00;14.00;15.00;16.00;17.00;18.00;19.00;20.00;21.00;22.00;23.00;24.00;25.00;26.00;27.00;28.00;29.00;30.00;31.00;32.00;33.00;34.00;35.00;36.00;37.00;38.00;39.00;40.00;41.00;42.00;43.00;44.00;45.00;46.00;47.00;48.00;49.00;50.00;51.00;52.00;53.00;54.00;55.00;56.00;57.00;58.00;59.00;60.00;61.00;62.00;63.00;64.00;65.00;66.00;67.00;68.00;69.00;70.00;71.00;72.00;73.00;74.00;75.00;76.00;77.00;78.00;79.00;80.00;81.00;82.00;83.00;84.00;85.00;
		REF_OVERSCAN_FACTOR=1.00
		SCAN_CURVETYPE=INPLANE_PROFILE
		SCAN_DEPTH=100.00
		SCAN_OFFAXIS_INPLANE=0.00
		SCAN_OFFAXIS_CROSSPLANE=0.00
		SCAN_ANGLE=0.00
		SCAN_DIAGONAL=NOT_DIAGONAL
		SCAN_DIRECTION=POSITIVE
		MEAS_MEDIUM=WATER
		MEAS_PRESET=MEAS_CONTINUOUS_REFERENCE_SCAN
		MEAS_TIME=0.100
		MEAS_UNIT=A.U.
		INCLINATION_ANGLE=0.00
		PRESSURE=1013.25
		TEMPERATURE=20.00
		NORM_TEMPERATURE=20.00
		CORRECTION_FACTOR=1.0000
		EXPECTED_MAX_DOSE_RATE=3.00
		EPOM_DEPTH_SHIFT=0.2
		EPOM_MODE=SHIFT_PROTOCOL
		CORRECTIONS=SMOOTHED_CORR;CAX_CORR;INTERPOLATED_CORR;
		BEGIN_DATA
			-59.50		10.481E+00
			-59.00		10.530E+00
			-58.50		10.651E+00
			-58.00		10.873E+00
			-57.50		11.103E+00
			-57.00		11.343E+00
			-56.50		11.577E+00
			-56.00		11.801E+00
			-55.50		12.034E+00
			-55.00		12.279E+00
			-54.50		12.541E+00
			-54.00		12.827E+00
			-53.50		13.121E+00
			-53.00		13.426E+00
			-52.50		13.747E+00
			-52.00		14.092E+00
			-51.50		14.411E+00
			-51.00		14.696E+00
			-50.50		15.023E+00
			-50.00		15.410E+00
			-49.50		15.805E+00
			-49.00		16.213E+00
			-48.50		16.643E+00
			-48.00		17.108E+00
			-47.50		17.584E+00
			-47.00		18.074E+00
			-46.50		18.582E+00
			-46.00		19.116E+00
			-45.50		19.707E+00
			-45.00		20.385E+00
			-44.50		21.133E+00
			-44.00		21.989E+00
			-43.50		22.984E+00
			-43.00		24.188E+00
			-42.50		25.629E+00
			-42.00		27.428E+00
			-41.50		29.681E+00
			-41.00		32.617E+00
			-40.50		36.332E+00
			-40.00		41.216E+00
			-39.50		47.064E+00
			-39.00		54.244E+00
			-38.50		62.254E+00
			-38.00		71.412E+00
			-37.50		81.195E+00
			-37.00		91.915E+00
			-36.50		102.84E+00
			-36.00		114.05E+00
			-35.50		125.21E+00
			-35.00		136.31E+00
			-34.50		147.05E+00
			-34.00		157.26E+00
			-33.50		166.98E+00
			-33.00		175.96E+00
			-32.50		184.20E+00
			-32.00		191.42E+00
			-31.50		198.04E+00
			-31.00		203.75E+00
			-30.50		208.96E+00
			-30.00		213.41E+00
			-29.50		217.52E+00
			-29.00		221.11E+00
			-28.50		224.40E+00
			-28.00		227.23E+00
			-27.50		229.80E+00
			-27.00		232.01E+00
			-26.50		234.01E+00
			-26.00		235.72E+00
			-25.50		237.22E+00
			-25.00		238.39E+00
			-24.50		239.52E+00
			-24.00		240.60E+00
			-23.50		241.63E+00
			-23.00		242.58E+00
			-22.50		243.47E+00
			-22.00		244.26E+00
			-21.50		245.00E+00
			-21.00		245.66E+00
			-20.50		246.29E+00
			-20.00		246.88E+00
			-19.50		247.45E+00
			-19.00		248.00E+00
			-18.50		248.54E+00
			-18.00		249.05E+00
			-17.50		249.55E+00
			-17.00		250.02E+00
			-16.50		250.49E+00
			-16.00		250.95E+00
			-15.50		251.40E+00
			-15.00		251.84E+00
			-14.50		252.26E+00
			-14.00		252.67E+00
			-13.50		253.06E+00
			-13.00		253.43E+00
			-12.50		253.79E+00
			-12.00		254.14E+00
			-11.50		254.48E+00
			-11.00		254.83E+00
			-10.50		255.16E+00
			-10.00		255.47E+00
			-9.50		255.75E+00
			-9.00		255.98E+00
			-8.50		256.20E+00
			-8.00		256.40E+00
			-7.50		256.59E+00
			-7.00		256.75E+00
			-6.50		256.89E+00
			-6.00		257.00E+00
			-5.50		257.09E+00
			-5.00		257.15E+00
			-4.50		257.22E+00
			-4.00		257.29E+00
			-3.50		257.37E+00
			-3.00		257.45E+00
			-2.50		257.52E+00
			-2.00		257.59E+00
			-1.50		257.62E+00
			-1.00		257.62E+00
			-0.50		257.58E+00
			0.00		257.51E+00
			0.50		257.43E+00
			1.00		257.34E+00
			1.50		257.23E+00
			2.00		257.12E+00
			2.50		256.99E+00
			3.00		256.85E+00
			3.50		256.70E+00
			4.00		256.55E+00
			4.50		256.40E+00
			5.00		256.28E+00
			5.50		256.15E+00
			6.00		256.04E+00
			6.50		255.91E+00
			7.00		255.75E+00
			7.50		255.57E+00
			8.00		255.37E+00
			8.50		255.17E+00
			9.00		254.97E+00
			9.50		254.77E+00
			10.00		254.57E+00
			10.50		254.35E+00
			11.00		254.12E+00
			11.50		253.88E+00
			12.00		253.64E+00
			12.50		253.38E+00
			13.00		253.11E+00
			13.50		252.81E+00
			14.00		252.48E+00
			14.50		252.14E+00
			15.00		251.79E+00
			15.50		251.43E+00
			16.00		251.07E+00
			16.50		250.71E+00
			17.00		250.34E+00
			17.50		249.95E+00
			18.00		249.55E+00
			18.50		249.14E+00
			19.00		248.70E+00
			19.50		248.23E+00
			20.00		247.71E+00
			20.50		247.14E+00
			21.00		246.53E+00
			21.50		245.91E+00
			22.00		245.29E+00
			22.50		244.65E+00
			23.00		243.99E+00
			23.50		243.30E+00
			24.00		242.56E+00
			24.50		241.76E+00
			25.00		240.90E+00
			25.50		239.97E+00
			26.00		238.97E+00
			26.50		237.92E+00
			27.00		236.80E+00
			27.50		235.43E+00
			28.00		233.69E+00
			28.50		231.73E+00
			29.00		229.41E+00
			29.50		226.53E+00
			30.00		222.79E+00
			30.50		218.34E+00
			31.00		212.72E+00
			31.50		206.19E+00
			32.00		198.29E+00
			32.50		189.72E+00
			33.00		180.05E+00
			33.50		169.95E+00
			34.00		159.24E+00
			34.50		148.21E+00
			35.00		136.73E+00
			35.50		125.43E+00
			36.00		114.39E+00
			36.50		103.93E+00
			37.00		94.247E+00
			37.50		85.085E+00
			38.00		76.697E+00
			38.50		68.946E+00
			39.00		62.150E+00
			39.50		55.922E+00
			40.00		50.546E+00
			40.50		45.693E+00
			41.00		41.624E+00
			41.50		37.927E+00
			42.00		34.789E+00
			42.50		31.968E+00
			43.00		29.622E+00
			43.50		27.555E+00
			44.00		25.906E+00
			44.50		24.437E+00
			45.00		23.236E+00
			45.50		22.139E+00
			46.00		21.186E+00
			46.50		20.333E+00
			47.00		19.627E+00
			47.50		18.990E+00
			48.00		18.446E+00
			48.50		17.921E+00
			49.00		17.422E+00
			49.50		16.970E+00
			50.00		16.585E+00
			50.50		16.213E+00
			51.00		15.859E+00
			51.50		15.521E+00
			52.00		15.207E+00
			52.50		14.863E+00
			53.00		14.476E+00
			53.50		14.147E+00
			54.00		13.896E+00
			54.50		13.630E+00
			55.00		13.339E+00
			55.50		13.065E+00
			56.00		12.816E+00
			56.50		12.555E+00
			57.00		12.278E+00
			57.50		12.012E+00
			58.00		11.760E+00
			58.50		11.529E+00
			59.00		11.326E+00
			59.50		11.121E+00
			60.00		10.911E+00
		END_DATA
	END_SCAN  3
	BEGIN_SCAN  4
		TASK_NAME=tba PDD Profiles
		PROGRAM=WaterTankScans
		COMMENT=Gemelli
		MEAS_DATE=08-Feb-2021 09:38:10
		LINAC=MRIdian
		MODALITY=X
		ISOCENTER=900.00
		INPLANE_AXIS=Y
		CROSSPLANE_AXIS=X
		DEPTH_AXIS=Depth
		INPLANE_AXIS_DIR=TARGET_GUN
		CROSSPLANE_AXIS_DIR=LEFT_RIGHT
		DEPTH_AXIS_DIR=UP_DOWN
		ENERGY=6.00
		NOMINAL_DMAX=15.00
		SSD=850.00
		SCD=450.00
		WEDGE_ANGLE=0.00
		FIELD_INPLANE=66.40
		FIELD_CROSSPLANE=66.40
		FIELD_TYPE=RECTANGULAR
		GANTRY=0.00
		GANTRY_UPRIGHT_POSITION=0
		GANTRY_ROTATION=CW
		COLL_ANGLE=0.00
		COLL_OFFSET_INPLANE=0.00
		COLL_OFFSET_CROSSPLANE=0.00
		SCAN_DEVICE=BeamScan
		SCAN_DEVICE_SETUP=BARA_LEFT_RIGHT
		ELECTROMETER=BeamScan
		RANGE_FIELD=LOW
		RANGE_REFERENCE=MEDIUM
		DETECTOR=THIMBLE_CHAMBER
		DETECTOR_RADIUS=2.40
		DETECTOR_NAME=A28MR
		DETECTOR_SN=-
		DETECTOR_CALIBRATION=588000000.00
		DETECTOR_IS_CALIBRATED=0
		DETECTOR_REFERENCE=THIMBLE_CHAMBER
		DETECTOR_REFERENCE_RADIUS=2.75
		DETECTOR_REFERENCE_NAME=A28MR
		DETECTOR_REFERENCE_SN=Ã¢â‚¬â€
		DETECTOR_REFERENCE_IS_CALIBRATED=0
		DETECTOR_REFERENCE_CALIBRATION=303000000.00
		DETECTOR_HV=300.0
		DETECTOR_REFERENCE_HV=300.0
		DETECTOR_ORIENTATION=HORIZONTAL
		FILTER=FFF
		SCAN_SPEED_PROFILE=10.00
		SCAN_PROF_SPEED_DEP=DEPTH
		SCAN_SPEED_PDD=0.00
		SCAN_PDD_SPEED_DEP=ENERGY
		DETECTOR_TYPE=A28MR
		REF_FIELD_DEPTH=220.00
		REF_FIELD_DEFINED=ISOCENTER
		REF_FIELD_INPLANE=100.00
		REF_FIELD_CROSSPLANE=100.00
		REF_SCAN_POSITIONS=-85.00;-84.00;-83.00;-82.00;-81.00;-80.00;-79.00;-78.00;-77.00;-76.00;-75.00;-74.00;-73.00;-72.00;-71.00;-70.00;-69.00;-68.00;-67.00;-66.00;-65.00;-64.00;-63.00;-62.00;-61.00;-60.00;-59.00;-58.00;-57.00;-56.00;-55.00;-54.00;-53.00;-52.00;-51.00;-50.00;-49.00;-48.00;-47.00;-46.00;-45.00;-44.00;-43.00;-42.00;-41.00;-40.00;-39.00;-38.00;-37.00;-36.00;-35.00;-34.00;-33.00;-32.00;-31.00;-30.00;-29.00;-28.00;-27.00;-26.00;-25.00;-24.00;-23.00;-22.00;-21.00;-20.00;-19.00;-18.00;-17.00;-16.00;-15.00;-14.00;-13.00;-12.00;-11.00;-10.00;-9.00;-8.00;-7.00;-6.00;-5.00;-4.00;-3.00;-2.00;-1.00;0.00;1.00;2.00;3.00;4.00;5.00;6.00;7.00;8.00;9.00;10.00;11.00;12.00;13.00;14.00;15.00;16.00;17.00;18.00;19.00;20.00;21.00;22.00;23.00;24.00;25.00;26.00;27.00;28.00;29.00;30.00;31.00;32.00;33.00;34.00;35.00;36.00;37.00;38.00;39.00;40.00;41.00;42.00;43.00;44.00;45.00;46.00;47.00;48.00;49.00;50.00;51.00;52.00;53.00;54.00;55.00;56.00;57.00;58.00;59.00;60.00;61.00;62.00;63.00;64.00;65.00;66.00;67.00;68.00;69.00;70.00;71.00;72.00;73.00;74.00;75.00;76.00;77.00;78.00;79.00;80.00;81.00;82.00;83.00;84.00;85.00;
		REF_OVERSCAN_FACTOR=1.00
		SCAN_CURVETYPE=INPLANE_PROFILE
		SCAN_DEPTH=150.00
		SCAN_OFFAXIS_INPLANE=0.00
		SCAN_OFFAXIS_CROSSPLANE=0.00
		SCAN_ANGLE=0.00
		SCAN_DIAGONAL=NOT_DIAGONAL
		SCAN_DIRECTION=POSITIVE
		MEAS_MEDIUM=WATER
		MEAS_PRESET=MEAS_CONTINUOUS_REFERENCE_SCAN
		MEAS_TIME=0.100
		MEAS_UNIT=A.U.
		INCLINATION_ANGLE=0.00
		PRESSURE=1013.25
		TEMPERATURE=20.00
		NORM_TEMPERATURE=20.00
		CORRECTION_FACTOR=1.0000
		EXPECTED_MAX_DOSE_RATE=3.00
		EPOM_DEPTH_SHIFT=0.2
		EPOM_MODE=SHIFT_PROTOCOL
		CORRECTIONS=SMOOTHED_CORR;CAX_CORR;INTERPOLATED_CORR;
		BEGIN_DATA
			-64.00		10.541E+00
			-63.50		10.626E+00
			-63.00		10.721E+00
			-62.50		10.859E+00
			-62.00		10.997E+00
			-61.50		11.211E+00
			-61.00		11.425E+00
			-60.50		11.621E+00
			-60.00		11.814E+00
			-59.50		12.011E+00
			-59.00		12.209E+00
			-58.50		12.409E+00
			-58.00		12.609E+00
			-57.50		12.823E+00
			-57.00		13.057E+00
			-56.50		13.300E+00
			-56.00		13.574E+00
			-55.50		13.851E+00
			-55.00		14.152E+00
			-54.50		14.453E+00
			-54.00		14.697E+00
			-53.50		14.939E+00
			-53.00		15.253E+00
			-52.50		15.587E+00
			-52.00		15.897E+00
			-51.50		16.194E+00
			-51.00		16.554E+00
			-50.50		16.977E+00
			-50.00		17.419E+00
			-49.50		17.896E+00
			-49.00		18.354E+00
			-48.50		18.722E+00
			-48.00		19.096E+00
			-47.50		19.772E+00
			-47.00		20.449E+00
			-46.50		21.107E+00
			-46.00		21.761E+00
			-45.50		22.842E+00
			-45.00		24.070E+00
			-44.50		25.554E+00
			-44.00		27.229E+00
			-43.50		29.409E+00
			-43.00		32.287E+00
			-42.50		35.684E+00
			-42.00		40.351E+00
			-41.50		45.250E+00
			-41.00		51.354E+00
			-40.50		57.458E+00
			-40.00		64.964E+00
			-39.50		72.485E+00
			-39.00		80.704E+00
			-38.50		89.058E+00
			-38.00		97.611E+00
			-37.50		106.25E+00
			-37.00		114.55E+00
			-36.50		122.55E+00
			-36.00		130.21E+00
			-35.50		137.26E+00
			-35.00		143.93E+00
			-34.50		149.25E+00
			-34.00		154.60E+00
			-33.50		160.29E+00
			-33.00		165.98E+00
			-32.50		170.28E+00
			-32.00		174.49E+00
			-31.50		177.45E+00
			-31.00		180.04E+00
			-30.50		182.41E+00
			-30.00		184.64E+00
			-29.50		186.74E+00
			-29.00		188.70E+00
			-28.50		190.58E+00
			-28.00		192.31E+00
			-27.50		193.95E+00
			-27.00		195.21E+00
			-26.50		196.46E+00
			-26.00		197.27E+00
			-25.50		198.08E+00
			-25.00		198.76E+00
			-24.50		199.42E+00
			-24.00		200.05E+00
			-23.50		200.67E+00
			-23.00		201.25E+00
			-22.50		201.81E+00
			-22.00		202.33E+00
			-21.50		202.82E+00
			-21.00		203.30E+00
			-20.50		203.73E+00
			-20.00		204.16E+00
			-19.50		204.57E+00
			-19.00		204.97E+00
			-18.50		205.37E+00
			-18.00		205.76E+00
			-17.50		206.16E+00
			-17.00		206.55E+00
			-16.50		206.95E+00
			-16.00		207.34E+00
			-15.50		207.72E+00
			-15.00		208.09E+00
			-14.50		208.45E+00
			-14.00		208.77E+00
			-13.50		209.09E+00
			-13.00		209.37E+00
			-12.50		209.64E+00
			-12.00		209.87E+00
			-11.50		210.09E+00
			-11.00		210.28E+00
			-10.50		210.45E+00
			-10.00		210.61E+00
			-9.50		210.75E+00
			-9.00		210.87E+00
			-8.50		210.99E+00
			-8.00		211.10E+00
			-7.50		211.19E+00
			-7.00		211.29E+00
			-6.50		211.38E+00
			-6.00		211.46E+00
			-5.50		211.54E+00
			-5.00		211.62E+00
			-4.50		211.68E+00
			-4.00		211.74E+00
			-3.50		211.79E+00
			-3.00		211.84E+00
			-2.50		211.87E+00
			-2.00		211.89E+00
			-1.50		211.90E+00
			-1.00		211.90E+00
			-0.50		211.89E+00
			0.00		211.87E+00
			0.50		211.84E+00
			1.00		211.80E+00
			1.50		211.76E+00
			2.00		211.71E+00
			2.50		211.66E+00
			3.00		211.60E+00
			3.50		211.55E+00
			4.00		211.48E+00
			4.50		211.41E+00
			5.00		211.32E+00
			5.50		211.23E+00
			6.00		211.12E+00
			6.50		210.99E+00
			7.00		210.85E+00
			7.50		210.70E+00
			8.00		210.54E+00
			8.50		210.36E+00
			9.00		210.18E+00
			9.50		209.99E+00
			10.00		209.79E+00
			10.50		209.56E+00
			11.00		209.34E+00
			11.50		209.09E+00
			12.00		208.84E+00
			12.50		208.58E+00
			13.00		208.32E+00
			13.50		208.05E+00
			14.00		207.78E+00
			14.50		207.52E+00
			15.00		207.26E+00
			15.50		207.01E+00
			16.00		206.77E+00
			16.50		206.52E+00
			17.00		206.28E+00
			17.50		206.05E+00
			18.00		205.81E+00
			18.50		205.57E+00
			19.00		205.33E+00
			19.50		205.08E+00
			20.00		204.82E+00
			20.50		204.55E+00
			21.00		204.25E+00
			21.50		203.93E+00
			22.00		203.58E+00
			22.50		203.19E+00
			23.00		202.79E+00
			23.50		202.33E+00
			24.00		201.86E+00
			24.50		201.28E+00
			25.00		200.68E+00
			25.50		200.04E+00
			26.00		199.39E+00
			26.50		198.70E+00
			27.00		198.00E+00
			27.50		197.09E+00
			28.00		195.96E+00
			28.50		194.72E+00
			29.00		193.27E+00
			29.50		191.80E+00
			30.00		190.22E+00
			30.50		188.62E+00
			31.00		186.65E+00
			31.50		184.68E+00
			32.00		181.55E+00
			32.50		178.26E+00
			33.00		173.28E+00
			33.50		167.69E+00
			34.00		161.58E+00
			34.50		155.08E+00
			35.00		147.98E+00
			35.50		140.09E+00
			36.00		132.01E+00
			36.50		123.52E+00
			37.00		114.99E+00
			37.50		106.23E+00
			38.00		97.477E+00
			38.50		89.687E+00
			39.00		81.898E+00
			39.50		75.036E+00
			40.00		68.338E+00
			40.50		62.631E+00
			41.00		57.350E+00
			41.50		52.428E+00
			42.00		47.828E+00
			42.50		43.585E+00
			43.00		39.989E+00
			43.50		36.653E+00
			44.00		34.104E+00
			44.50		31.593E+00
			45.00		29.552E+00
			45.50		27.511E+00
			46.00		25.985E+00
			46.50		24.501E+00
			47.00		23.361E+00
			47.50		22.320E+00
			48.00		21.436E+00
			48.50		20.637E+00
			49.00		19.916E+00
			49.50		19.269E+00
			50.00		18.704E+00
			50.50		18.293E+00
			51.00		17.875E+00
			51.50		17.425E+00
			52.00		16.977E+00
			52.50		16.560E+00
			53.00		16.144E+00
			53.50		15.884E+00
			54.00		15.643E+00
			54.50		15.382E+00
			55.00		15.114E+00
			55.50		14.833E+00
			56.00		14.544E+00
			56.50		14.283E+00
			57.00		14.063E+00
			57.50		13.828E+00
			58.00		13.560E+00
			58.50		13.296E+00
			59.00		13.056E+00
			59.50		12.817E+00
			60.00		12.643E+00
			60.50		12.471E+00
			61.00		12.236E+00
			61.50		11.989E+00
			62.00		11.780E+00
			62.50		11.587E+00
			63.00		11.401E+00
			63.50		11.220E+00
			64.00		11.032E+00
			64.50		10.834E+00
		END_DATA
	END_SCAN  4
	BEGIN_SCAN  5
		TASK_NAME=tba PDD Profiles
		PROGRAM=WaterTankScans
		COMMENT=Gemelli
		MEAS_DATE=08-Feb-2021 09:38:10
		LINAC=MRIdian
		MODALITY=X
		ISOCENTER=900.00
		INPLANE_AXIS=Y
		CROSSPLANE_AXIS=X
		DEPTH_AXIS=Depth
		INPLANE_AXIS_DIR=TARGET_GUN
		CROSSPLANE_AXIS_DIR=LEFT_RIGHT
		DEPTH_AXIS_DIR=UP_DOWN
		ENERGY=6.00
		NOMINAL_DMAX=15.00
		SSD=850.00
		SCD=450.00
		WEDGE_ANGLE=0.00
		FIELD_INPLANE=66.40
		FIELD_CROSSPLANE=66.40
		FIELD_TYPE=RECTANGULAR
		GANTRY=0.00
		GANTRY_UPRIGHT_POSITION=0
		GANTRY_ROTATION=CW
		COLL_ANGLE=0.00
		COLL_OFFSET_INPLANE=0.00
		COLL_OFFSET_CROSSPLANE=0.00
		SCAN_DEVICE=BeamScan
		SCAN_DEVICE_SETUP=BARA_LEFT_RIGHT
		ELECTROMETER=BeamScan
		RANGE_FIELD=LOW
		RANGE_REFERENCE=MEDIUM
		DETECTOR=THIMBLE_CHAMBER
		DETECTOR_RADIUS=2.40
		DETECTOR_NAME=A28MR
		DETECTOR_SN=-
		DETECTOR_CALIBRATION=588000000.00
		DETECTOR_IS_CALIBRATED=0
		DETECTOR_REFERENCE=THIMBLE_CHAMBER
		DETECTOR_REFERENCE_RADIUS=2.75
		DETECTOR_REFERENCE_NAME=A28MR
		DETECTOR_REFERENCE_SN=Ã¢â‚¬â€
		DETECTOR_REFERENCE_IS_CALIBRATED=0
		DETECTOR_REFERENCE_CALIBRATION=303000000.00
		DETECTOR_HV=300.0
		DETECTOR_REFERENCE_HV=300.0
		DETECTOR_ORIENTATION=HORIZONTAL
		FILTER=FFF
		SCAN_SPEED_PROFILE=10.00
		SCAN_PROF_SPEED_DEP=DEPTH
		SCAN_SPEED_PDD=0.00
		SCAN_PDD_SPEED_DEP=ENERGY
		DETECTOR_TYPE=A28MR
		REF_FIELD_DEPTH=220.00
		REF_FIELD_DEFINED=ISOCENTER
		REF_FIELD_INPLANE=100.00
		REF_FIELD_CROSSPLANE=100.00
		REF_SCAN_POSITIONS=-85.00;-84.00;-83.00;-82.00;-81.00;-80.00;-79.00;-78.00;-77.00;-76.00;-75.00;-74.00;-73.00;-72.00;-71.00;-70.00;-69.00;-68.00;-67.00;-66.00;-65.00;-64.00;-63.00;-62.00;-61.00;-60.00;-59.00;-58.00;-57.00;-56.00;-55.00;-54.00;-53.00;-52.00;-51.00;-50.00;-49.00;-48.00;-47.00;-46.00;-45.00;-44.00;-43.00;-42.00;-41.00;-40.00;-39.00;-38.00;-37.00;-36.00;-35.00;-34.00;-33.00;-32.00;-31.00;-30.00;-29.00;-28.00;-27.00;-26.00;-25.00;-24.00;-23.00;-22.00;-21.00;-20.00;-19.00;-18.00;-17.00;-16.00;-15.00;-14.00;-13.00;-12.00;-11.00;-10.00;-9.00;-8.00;-7.00;-6.00;-5.00;-4.00;-3.00;-2.00;-1.00;0.00;1.00;2.00;3.00;4.00;5.00;6.00;7.00;8.00;9.00;10.00;11.00;12.00;13.00;14.00;15.00;16.00;17.00;18.00;19.00;20.00;21.00;22.00;23.00;24.00;25.00;26.00;27.00;28.00;29.00;30.00;31.00;32.00;33.00;34.00;35.00;36.00;37.00;38.00;39.00;40.00;41.00;42.00;43.00;44.00;45.00;46.00;47.00;48.00;49.00;50.00;51.00;52.00;53.00;54.00;55.00;56.00;57.00;58.00;59.00;60.00;61.00;62.00;63.00;64.00;65.00;66.00;67.00;68.00;69.00;70.00;71.00;72.00;73.00;74.00;75.00;76.00;77.00;78.00;79.00;80.00;81.00;82.00;83.00;84.00;85.00;
		REF_OVERSCAN_FACTOR=1.00
		SCAN_CURVETYPE=INPLANE_PROFILE
		SCAN_DEPTH=200.00
		SCAN_OFFAXIS_INPLANE=0.00
		SCAN_OFFAXIS_CROSSPLANE=0.00
		SCAN_ANGLE=0.00
		SCAN_DIAGONAL=NOT_DIAGONAL
		SCAN_DIRECTION=POSITIVE
		MEAS_MEDIUM=WATER
		MEAS_PRESET=MEAS_CONTINUOUS_REFERENCE_SCAN
		MEAS_TIME=0.100
		MEAS_UNIT=A.U.
		INCLINATION_ANGLE=0.00
		PRESSURE=1013.25
		TEMPERATURE=20.00
		NORM_TEMPERATURE=20.00
		CORRECTION_FACTOR=1.0000
		EXPECTED_MAX_DOSE_RATE=3.00
		EPOM_DEPTH_SHIFT=0.2
		EPOM_MODE=SHIFT_PROTOCOL
		CORRECTIONS=SMOOTHED_CORR;CAX_CORR;INTERPOLATED_CORR;
		BEGIN_DATA
			-63.50		9.8564E+00
			-63.00		9.9430E+00
			-62.50		10.030E+00
			-62.00		10.170E+00
			-61.50		10.313E+00
			-61.00		10.505E+00
			-60.50		10.709E+00
			-60.00		10.867E+00
			-59.50		11.000E+00
			-59.00		11.177E+00
			-58.50		11.397E+00
			-58.00		11.593E+00
			-57.50		11.745E+00
			-57.00		11.898E+00
			-56.50		12.052E+00
			-56.00		12.212E+00
			-55.50		12.463E+00
			-55.00		12.714E+00
			-54.50		12.973E+00
			-54.00		13.232E+00
			-53.50		13.445E+00
			-53.00		13.647E+00
			-52.50		13.925E+00
			-52.00		14.241E+00
			-51.50		14.572E+00
			-51.00		14.917E+00
			-50.50		15.269E+00
			-50.00		15.633E+00
			-49.50		16.013E+00
			-49.00		16.450E+00
			-48.50		16.912E+00
			-48.00		17.627E+00
			-47.50		18.342E+00
			-47.00		19.157E+00
			-46.50		19.980E+00
			-46.00		21.336E+00
			-45.50		22.857E+00
			-45.00		24.994E+00
			-44.50		27.473E+00
			-44.00		30.441E+00
			-43.50		33.898E+00
			-43.00		37.767E+00
			-42.50		42.380E+00
			-42.00		47.152E+00
			-41.50		52.440E+00
			-41.00		57.759E+00
			-40.50		63.365E+00
			-40.00		68.972E+00
			-39.50		75.138E+00
			-39.00		81.333E+00
			-38.50		86.958E+00
			-38.00		92.447E+00
			-37.50		97.250E+00
			-37.00		101.71E+00
			-36.50		106.09E+00
			-36.00		110.40E+00
			-35.50		114.29E+00
			-35.00		117.44E+00
			-34.50		120.36E+00
			-34.00		122.50E+00
			-33.50		124.68E+00
			-33.00		127.41E+00
			-32.50		130.14E+00
			-32.00		131.52E+00
			-31.50		132.82E+00
			-31.00		133.92E+00
			-30.50		134.96E+00
			-30.00		136.12E+00
			-29.50		137.36E+00
			-29.00		138.30E+00
			-28.50		138.98E+00
			-28.00		139.65E+00
			-27.50		140.30E+00
			-27.00		140.93E+00
			-26.50		141.46E+00
			-26.00		141.99E+00
			-25.50		142.48E+00
			-25.00		142.96E+00
			-24.50		143.42E+00
			-24.00		143.89E+00
			-23.50		144.33E+00
			-23.00		144.76E+00
			-22.50		145.15E+00
			-22.00		145.52E+00
			-21.50		145.86E+00
			-21.00		146.16E+00
			-20.50		146.45E+00
			-20.00		146.72E+00
			-19.50		146.98E+00
			-19.00		147.23E+00
			-18.50		147.48E+00
			-18.00		147.74E+00
			-17.50		148.00E+00
			-17.00		148.28E+00
			-16.50		148.56E+00
			-16.00		148.84E+00
			-15.50		149.13E+00
			-15.00		149.40E+00
			-14.50		149.66E+00
			-14.00		149.91E+00
			-13.50		150.14E+00
			-13.00		150.34E+00
			-12.50		150.51E+00
			-12.00		150.67E+00
			-11.50		150.79E+00
			-11.00		150.90E+00
			-10.50		150.97E+00
			-10.00		151.04E+00
			-9.50		151.09E+00
			-9.00		151.14E+00
			-8.50		151.20E+00
			-8.00		151.26E+00
			-7.50		151.33E+00
			-7.00		151.40E+00
			-6.50		151.47E+00
			-6.00		151.55E+00
			-5.50		151.63E+00
			-5.00		151.70E+00
			-4.50		151.76E+00
			-4.00		151.80E+00
			-3.50		151.84E+00
			-3.00		151.85E+00
			-2.50		151.86E+00
			-2.00		151.85E+00
			-1.50		151.84E+00
			-1.00		151.82E+00
			-0.50		151.80E+00
			0.00		151.79E+00
			0.50		151.77E+00
			1.00		151.75E+00
			1.50		151.74E+00
			2.00		151.73E+00
			2.50		151.72E+00
			3.00		151.70E+00
			3.50		151.67E+00
			4.00		151.64E+00
			4.50		151.59E+00
			5.00		151.53E+00
			5.50		151.47E+00
			6.00		151.40E+00
			6.50		151.33E+00
			7.00		151.26E+00
			7.50		151.18E+00
			8.00		151.09E+00
			8.50		151.00E+00
			9.00		150.90E+00
			9.50		150.79E+00
			10.00		150.66E+00
			10.50		150.54E+00
			11.00		150.41E+00
			11.50		150.27E+00
			12.00		150.13E+00
			12.50		149.98E+00
			13.00		149.82E+00
			13.50		149.66E+00
			14.00		149.47E+00
			14.50		149.28E+00
			15.00		149.08E+00
			15.50		148.88E+00
			16.00		148.67E+00
			16.50		148.47E+00
			17.00		148.27E+00
			17.50		148.08E+00
			18.00		147.89E+00
			18.50		147.71E+00
			19.00		147.54E+00
			19.50		147.35E+00
			20.00		147.17E+00
			20.50		146.97E+00
			21.00		146.76E+00
			21.50		146.51E+00
			22.00		146.26E+00
			22.50		145.98E+00
			23.00		145.67E+00
			23.50		145.34E+00
			24.00		144.99E+00
			24.50		144.62E+00
			25.00		144.24E+00
			25.50		143.86E+00
			26.00		143.45E+00
			26.50		143.05E+00
			27.00		142.63E+00
			27.50		142.21E+00
			28.00		141.72E+00
			28.50		141.24E+00
			29.00		140.57E+00
			29.50		139.85E+00
			30.00		138.97E+00
			30.50		138.01E+00
			31.00		137.07E+00
			31.50		136.15E+00
			32.00		135.13E+00
			32.50		133.96E+00
			33.00		132.63E+00
			33.50		130.74E+00
			34.00		128.74E+00
			34.50		125.43E+00
			35.00		122.11E+00
			35.50		118.15E+00
			36.00		114.14E+00
			36.50		108.96E+00
			37.00		103.49E+00
			37.50		97.941E+00
			38.00		92.358E+00
			38.50		86.661E+00
			39.00		80.859E+00
			39.50		75.134E+00
			40.00		69.533E+00
			40.50		64.028E+00
			41.00		58.833E+00
			41.50		53.708E+00
			42.00		49.501E+00
			42.50		45.293E+00
			43.00		41.699E+00
			43.50		38.169E+00
			44.00		35.255E+00
			44.50		32.509E+00
			45.00		30.124E+00
			45.50		27.940E+00
			46.00		25.962E+00
			46.50		24.191E+00
			47.00		22.655E+00
			47.50		21.543E+00
			48.00		20.474E+00
			48.50		19.544E+00
			49.00		18.638E+00
			49.50		17.959E+00
			50.00		17.281E+00
			50.50		16.746E+00
			51.00		16.219E+00
			51.50		15.747E+00
			52.00		15.290E+00
			52.50		14.859E+00
			53.00		14.441E+00
			53.50		14.101E+00
			54.00		13.832E+00
			54.50		13.588E+00
			55.00		13.390E+00
			55.50		13.196E+00
			56.00		13.016E+00
			56.50		12.830E+00
			57.00		12.579E+00
			57.50		12.328E+00
			58.00		12.139E+00
			58.50		11.954E+00
			59.00		11.748E+00
			59.50		11.536E+00
			60.00		11.376E+00
			60.50		11.245E+00
			61.00		11.085E+00
			61.50		10.898E+00
			62.00		10.733E+00
			62.50		10.603E+00
			63.00		10.468E+00
			63.50		10.320E+00
			64.00		10.171E+00
			64.50		10.005E+00
			65.00		9.8403E+00
		END_DATA
	END_SCAN  5
	BEGIN_SCAN  6
		TASK_NAME=tba PDD Profiles
		PROGRAM=WaterTankScans
		COMMENT=Gemelli
		MEAS_DATE=08-Feb-2021 09:38:10
		LINAC=MRIdian
		MODALITY=X
		ISOCENTER=900.00
		INPLANE_AXIS=Y
		CROSSPLANE_AXIS=X
		DEPTH_AXIS=Depth
		INPLANE_AXIS_DIR=TARGET_GUN
		CROSSPLANE_AXIS_DIR=LEFT_RIGHT
		DEPTH_AXIS_DIR=UP_DOWN
		ENERGY=6.00
		NOMINAL_DMAX=15.00
		SSD=850.00
		SCD=450.00
		WEDGE_ANGLE=0.00
		FIELD_INPLANE=66.40
		FIELD_CROSSPLANE=66.40
		FIELD_TYPE=RECTANGULAR
		GANTRY=0.00
		GANTRY_UPRIGHT_POSITION=0
		GANTRY_ROTATION=CW
		COLL_ANGLE=0.00
		COLL_OFFSET_INPLANE=0.00
		COLL_OFFSET_CROSSPLANE=0.00
		SCAN_DEVICE=BeamScan
		SCAN_DEVICE_SETUP=BARA_LEFT_RIGHT
		ELECTROMETER=BeamScan
		RANGE_FIELD=LOW
		RANGE_REFERENCE=MEDIUM
		DETECTOR=THIMBLE_CHAMBER
		DETECTOR_RADIUS=2.40
		DETECTOR_NAME=A28MR
		DETECTOR_SN=-
		DETECTOR_CALIBRATION=588000000.00
		DETECTOR_IS_CALIBRATED=0
		DETECTOR_REFERENCE=THIMBLE_CHAMBER
		DETECTOR_REFERENCE_RADIUS=2.75
		DETECTOR_REFERENCE_NAME=A28MR
		DETECTOR_REFERENCE_SN=Ã¢â‚¬â€
		DETECTOR_REFERENCE_IS_CALIBRATED=0
		DETECTOR_REFERENCE_CALIBRATION=303000000.00
		DETECTOR_HV=300.0
		DETECTOR_REFERENCE_HV=300.0
		DETECTOR_ORIENTATION=HORIZONTAL
		FILTER=FFF
		SCAN_SPEED_PROFILE=10.00
		SCAN_PROF_SPEED_DEP=DEPTH
		SCAN_SPEED_PDD=0.00
		SCAN_PDD_SPEED_DEP=ENERGY
		DETECTOR_TYPE=A28MR
		REF_FIELD_DEPTH=220.00
		REF_FIELD_DEFINED=ISOCENTER
		REF_FIELD_INPLANE=100.00
		REF_FIELD_CROSSPLANE=100.00
		REF_SCAN_POSITIONS=-85.00;-84.00;-83.00;-82.00;-81.00;-80.00;-79.00;-78.00;-77.00;-76.00;-75.00;-74.00;-73.00;-72.00;-71.00;-70.00;-69.00;-68.00;-67.00;-66.00;-65.00;-64.00;-63.00;-62.00;-61.00;-60.00;-59.00;-58.00;-57.00;-56.00;-55.00;-54.00;-53.00;-52.00;-51.00;-50.00;-49.00;-48.00;-47.00;-46.00;-45.00;-44.00;-43.00;-42.00;-41.00;-40.00;-39.00;-38.00;-37.00;-36.00;-35.00;-34.00;-33.00;-32.00;-31.00;-30.00;-29.00;-28.00;-27.00;-26.00;-25.00;-24.00;-23.00;-22.00;-21.00;-20.00;-19.00;-18.00;-17.00;-16.00;-15.00;-14.00;-13.00;-12.00;-11.00;-10.00;-9.00;-8.00;-7.00;-6.00;-5.00;-4.00;-3.00;-2.00;-1.00;0.00;1.00;2.00;3.00;4.00;5.00;6.00;7.00;8.00;9.00;10.00;11.00;12.00;13.00;14.00;15.00;16.00;17.00;18.00;19.00;20.00;21.00;22.00;23.00;24.00;25.00;26.00;27.00;28.00;29.00;30.00;31.00;32.00;33.00;34.00;35.00;36.00;37.00;38.00;39.00;40.00;41.00;42.00;43.00;44.00;45.00;46.00;47.00;48.00;49.00;50.00;51.00;52.00;53.00;54.00;55.00;56.00;57.00;58.00;59.00;60.00;61.00;62.00;63.00;64.00;65.00;66.00;67.00;68.00;69.00;70.00;71.00;72.00;73.00;74.00;75.00;76.00;77.00;78.00;79.00;80.00;81.00;82.00;83.00;84.00;85.00;
		REF_OVERSCAN_FACTOR=1.00
		SCAN_CURVETYPE=INPLANE_PROFILE
		SCAN_DEPTH=250.00
		SCAN_OFFAXIS_INPLANE=0.00
		SCAN_OFFAXIS_CROSSPLANE=0.00
		SCAN_ANGLE=0.00
		SCAN_DIAGONAL=NOT_DIAGONAL
		SCAN_DIRECTION=POSITIVE
		MEAS_MEDIUM=WATER
		MEAS_PRESET=MEAS_CONTINUOUS_REFERENCE_SCAN
		MEAS_TIME=0.100
		MEAS_UNIT=A.U.
		INCLINATION_ANGLE=0.00
		PRESSURE=1013.25
		TEMPERATURE=20.00
		NORM_TEMPERATURE=20.00
		CORRECTION_FACTOR=1.0000
		EXPECTED_MAX_DOSE_RATE=3.00
		EPOM_DEPTH_SHIFT=0.2
		EPOM_MODE=SHIFT_PROTOCOL
		CORRECTIONS=SMOOTHED_CORR;CAX_CORR;INTERPOLATED_CORR;
		BEGIN_DATA
			-62.50		8.8239E+00
			-62.00		8.8977E+00
			-61.50		8.9906E+00
			-61.00		9.0969E+00
			-60.50		9.2321E+00
			-60.00		9.4061E+00
			-59.50		9.5802E+00
			-59.00		9.7547E+00
			-58.50		9.9200E+00
			-58.00		10.025E+00
			-57.50		10.131E+00
			-57.00		10.342E+00
			-56.50		10.554E+00
			-56.00		10.698E+00
			-55.50		10.833E+00
			-55.00		11.038E+00
			-54.50		11.269E+00
			-54.00		11.478E+00
			-53.50		11.674E+00
			-53.00		11.891E+00
			-52.50		12.132E+00
			-52.00		12.386E+00
			-51.50		12.667E+00
			-51.00		12.982E+00
			-50.50		13.453E+00
			-50.00		13.932E+00
			-49.50		14.514E+00
			-49.00		15.096E+00
			-48.50		15.878E+00
			-48.00		16.674E+00
			-47.50		17.836E+00
			-47.00		19.104E+00
			-46.50		20.823E+00
			-46.00		22.796E+00
			-45.50		25.204E+00
			-45.00		28.042E+00
			-44.50		31.087E+00
			-44.00		34.490E+00
			-43.50		38.011E+00
			-43.00		41.971E+00
			-42.50		45.970E+00
			-42.00		50.336E+00
			-41.50		54.701E+00
			-41.00		58.481E+00
			-40.50		62.249E+00
			-40.00		65.958E+00
			-39.50		69.657E+00
			-39.00		73.075E+00
			-38.50		76.378E+00
			-38.00		79.190E+00
			-37.50		81.636E+00
			-37.00		83.985E+00
			-36.50		86.209E+00
			-36.00		88.327E+00
			-35.50		90.198E+00
			-35.00		92.013E+00
			-34.50		93.499E+00
			-34.00		94.984E+00
			-33.50		96.112E+00
			-33.00		97.235E+00
			-32.50		98.180E+00
			-32.00		99.104E+00
			-31.50		99.838E+00
			-31.00		100.51E+00
			-30.50		101.11E+00
			-30.00		101.66E+00
			-29.50		102.19E+00
			-29.00		102.69E+00
			-28.50		103.15E+00
			-28.00		103.56E+00
			-27.50		103.94E+00
			-27.00		104.26E+00
			-26.50		104.56E+00
			-26.00		104.83E+00
			-25.50		105.09E+00
			-25.00		105.35E+00
			-24.50		105.62E+00
			-24.00		105.89E+00
			-23.50		106.17E+00
			-23.00		106.44E+00
			-22.50		106.70E+00
			-22.00		106.93E+00
			-21.50		107.14E+00
			-21.00		107.32E+00
			-20.50		107.47E+00
			-20.00		107.61E+00
			-19.50		107.73E+00
			-19.00		107.85E+00
			-18.50		107.97E+00
			-18.00		108.09E+00
			-17.50		108.21E+00
			-17.00		108.34E+00
			-16.50		108.46E+00
			-16.00		108.59E+00
			-15.50		108.72E+00
			-15.00		108.86E+00
			-14.50		108.99E+00
			-14.00		109.13E+00
			-13.50		109.27E+00
			-13.00		109.41E+00
			-12.50		109.55E+00
			-12.00		109.69E+00
			-11.50		109.83E+00
			-11.00		109.97E+00
			-10.50		110.11E+00
			-10.00		110.24E+00
			-9.50		110.37E+00
			-9.00		110.48E+00
			-8.50		110.59E+00
			-8.00		110.68E+00
			-7.50		110.76E+00
			-7.00		110.83E+00
			-6.50		110.88E+00
			-6.00		110.92E+00
			-5.50		110.95E+00
			-5.00		110.98E+00
			-4.50		110.99E+00
			-4.00		111.00E+00
			-3.50		111.01E+00
			-3.00		111.03E+00
			-2.50		111.04E+00
			-2.00		111.05E+00
			-1.50		111.06E+00
			-1.00		111.07E+00
			-0.50		111.07E+00
			0.00		111.07E+00
			0.50		111.05E+00
			1.00		111.03E+00
			1.50		111.00E+00
			2.00		110.95E+00
			2.50		110.91E+00
			3.00		110.85E+00
			3.50		110.80E+00
			4.00		110.74E+00
			4.50		110.68E+00
			5.00		110.63E+00
			5.50		110.57E+00
			6.00		110.52E+00
			6.50		110.48E+00
			7.00		110.43E+00
			7.50		110.38E+00
			8.00		110.33E+00
			8.50		110.28E+00
			9.00		110.23E+00
			9.50		110.17E+00
			10.00		110.12E+00
			10.50		110.06E+00
			11.00		110.01E+00
			11.50		109.95E+00
			12.00		109.90E+00
			12.50		109.84E+00
			13.00		109.78E+00
			13.50		109.71E+00
			14.00		109.64E+00
			14.50		109.55E+00
			15.00		109.46E+00
			15.50		109.34E+00
			16.00		109.21E+00
			16.50		109.07E+00
			17.00		108.91E+00
			17.50		108.75E+00
			18.00		108.58E+00
			18.50		108.40E+00
			19.00		108.22E+00
			19.50		108.04E+00
			20.00		107.86E+00
			20.50		107.68E+00
			21.00		107.50E+00
			21.50		107.32E+00
			22.00		107.14E+00
			22.50		106.96E+00
			23.00		106.78E+00
			23.50		106.60E+00
			24.00		106.42E+00
			24.50		106.24E+00
			25.00		106.06E+00
			25.50		105.86E+00
			26.00		105.65E+00
			26.50		105.40E+00
			27.00		105.14E+00
			27.50		104.82E+00
			28.00		104.50E+00
			28.50		104.14E+00
			29.00		103.78E+00
			29.50		103.44E+00
			30.00		103.10E+00
			30.50		102.74E+00
			31.00		102.37E+00
			31.50		101.89E+00
			32.00		101.37E+00
			32.50		100.72E+00
			33.00		99.971E+00
			33.50		99.133E+00
			34.00		98.185E+00
			34.50		97.134E+00
			35.00		95.853E+00
			35.50		94.442E+00
			36.00		92.410E+00
			36.50		90.334E+00
			37.00		87.536E+00
			37.50		84.737E+00
			38.00		81.475E+00
			38.50		78.187E+00
			39.00		74.435E+00
			39.50		70.559E+00
			40.00		66.599E+00
			40.50		62.594E+00
			41.00		58.588E+00
			41.50		54.581E+00
			42.00		50.661E+00
			42.50		46.897E+00
			43.00		43.216E+00
			43.50		39.874E+00
			44.00		36.594E+00
			44.50		33.842E+00
			45.00		31.090E+00
			45.50		28.860E+00
			46.00		26.646E+00
			46.50		24.834E+00
			47.00		23.115E+00
			47.50		21.572E+00
			48.00		20.113E+00
			48.50		18.889E+00
			49.00		17.848E+00
			49.50		16.901E+00
			50.00		16.081E+00
			50.50		15.327E+00
			51.00		14.733E+00
			51.50		14.154E+00
			52.00		13.649E+00
			52.50		13.148E+00
			53.00		12.800E+00
			53.50		12.452E+00
			54.00		12.163E+00
			54.50		11.882E+00
			55.00		11.644E+00
			55.50		11.423E+00
			56.00		11.218E+00
			56.50		11.025E+00
			57.00		10.841E+00
			57.50		10.668E+00
			58.00		10.499E+00
			58.50		10.338E+00
			59.00		10.180E+00
			59.50		10.032E+00
			60.00		9.8840E+00
			60.50		9.7435E+00
			61.00		9.6030E+00
			61.50		9.4598E+00
			62.00		9.3165E+00
			62.50		9.1944E+00
			63.00		9.0777E+00
			63.50		8.9478E+00
			64.00		8.8112E+00
			64.50		8.6933E+00
			65.00		8.5923E+00
		END_DATA
	END_SCAN  6
	BEGIN_SCAN  7
		TASK_NAME=tba PDD Profiles
		PROGRAM=WaterTankScans
		COMMENT=Gemelli
		MEAS_DATE=08-Feb-2021 09:38:10
		LINAC=MRIdian
		MODALITY=X
		ISOCENTER=900.00
		INPLANE_AXIS=Y
		CROSSPLANE_AXIS=X
		DEPTH_AXIS=Depth
		INPLANE_AXIS_DIR=TARGET_GUN
		CROSSPLANE_AXIS_DIR=LEFT_RIGHT
		DEPTH_AXIS_DIR=UP_DOWN
		ENERGY=6.00
		NOMINAL_DMAX=15.00
		SSD=850.00
		SCD=450.00
		WEDGE_ANGLE=0.00
		FIELD_INPLANE=66.40
		FIELD_CROSSPLANE=66.40
		FIELD_TYPE=RECTANGULAR
		GANTRY=0.00
		GANTRY_UPRIGHT_POSITION=0
		GANTRY_ROTATION=CW
		COLL_ANGLE=0.00
		COLL_OFFSET_INPLANE=0.00
		COLL_OFFSET_CROSSPLANE=0.00
		SCAN_DEVICE=BeamScan
		SCAN_DEVICE_SETUP=BARA_LEFT_RIGHT
		ELECTROMETER=BeamScan
		RANGE_FIELD=LOW
		RANGE_REFERENCE=MEDIUM
		DETECTOR=THIMBLE_CHAMBER
		DETECTOR_RADIUS=2.40
		DETECTOR_NAME=A28MR
		DETECTOR_SN=-
		DETECTOR_CALIBRATION=588000000.00
		DETECTOR_IS_CALIBRATED=0
		DETECTOR_REFERENCE=THIMBLE_CHAMBER
		DETECTOR_REFERENCE_RADIUS=2.75
		DETECTOR_REFERENCE_NAME=A28MR
		DETECTOR_REFERENCE_SN=Ã¢â‚¬â€
		DETECTOR_REFERENCE_IS_CALIBRATED=0
		DETECTOR_REFERENCE_CALIBRATION=303000000.00
		DETECTOR_HV=300.0
		DETECTOR_REFERENCE_HV=300.0
		DETECTOR_ORIENTATION=HORIZONTAL
		FILTER=FFF
		SCAN_SPEED_PROFILE=10.00
		SCAN_PROF_SPEED_DEP=DEPTH
		SCAN_SPEED_PDD=0.00
		SCAN_PDD_SPEED_DEP=ENERGY
		DETECTOR_TYPE=A28MR
		REF_FIELD_DEPTH=220.00
		REF_FIELD_DEFINED=ISOCENTER
		REF_FIELD_INPLANE=100.00
		REF_FIELD_CROSSPLANE=100.00
		REF_SCAN_POSITIONS=-85.00;-84.00;-83.00;-82.00;-81.00;-80.00;-79.00;-78.00;-77.00;-76.00;-75.00;-74.00;-73.00;-72.00;-71.00;-70.00;-69.00;-68.00;-67.00;-66.00;-65.00;-64.00;-63.00;-62.00;-61.00;-60.00;-59.00;-58.00;-57.00;-56.00;-55.00;-54.00;-53.00;-52.00;-51.00;-50.00;-49.00;-48.00;-47.00;-46.00;-45.00;-44.00;-43.00;-42.00;-41.00;-40.00;-39.00;-38.00;-37.00;-36.00;-35.00;-34.00;-33.00;-32.00;-31.00;-30.00;-29.00;-28.00;-27.00;-26.00;-25.00;-24.00;-23.00;-22.00;-21.00;-20.00;-19.00;-18.00;-17.00;-16.00;-15.00;-14.00;-13.00;-12.00;-11.00;-10.00;-9.00;-8.00;-7.00;-6.00;-5.00;-4.00;-3.00;-2.00;-1.00;0.00;1.00;2.00;3.00;4.00;5.00;6.00;7.00;8.00;9.00;10.00;11.00;12.00;13.00;14.00;15.00;16.00;17.00;18.00;19.00;20.00;21.00;22.00;23.00;24.00;25.00;26.00;27.00;28.00;29.00;30.00;31.00;32.00;33.00;34.00;35.00;36.00;37.00;38.00;39.00;40.00;41.00;42.00;43.00;44.00;45.00;46.00;47.00;48.00;49.00;50.00;51.00;52.00;53.00;54.00;55.00;56.00;57.00;58.00;59.00;60.00;61.00;62.00;63.00;64.00;65.00;66.00;67.00;68.00;69.00;70.00;71.00;72.00;73.00;74.00;75.00;76.00;77.00;78.00;79.00;80.00;81.00;82.00;83.00;84.00;85.00;
		REF_OVERSCAN_FACTOR=1.00
		SCAN_CURVETYPE=INPLANE_PROFILE
		SCAN_DEPTH=285.00
		SCAN_OFFAXIS_INPLANE=0.00
		SCAN_OFFAXIS_CROSSPLANE=0.00
		SCAN_ANGLE=0.00
		SCAN_DIAGONAL=NOT_DIAGONAL
		SCAN_DIRECTION=POSITIVE
		MEAS_MEDIUM=WATER
		MEAS_PRESET=MEAS_CONTINUOUS_REFERENCE_SCAN
		MEAS_TIME=0.100
		MEAS_UNIT=A.U.
		INCLINATION_ANGLE=0.00
		PRESSURE=1013.25
		TEMPERATURE=20.00
		NORM_TEMPERATURE=20.00
		CORRECTION_FACTOR=1.0000
		EXPECTED_MAX_DOSE_RATE=3.00
		EPOM_DEPTH_SHIFT=0.2
		EPOM_MODE=SHIFT_PROTOCOL
		CORRECTIONS=SMOOTHED_CORR;CAX_CORR;INTERPOLATED_CORR;
		BEGIN_DATA
			-62.50		7.7731E+00
			-62.00		7.8954E+00
			-61.50		8.0177E+00
			-61.00		8.1205E+00
			-60.50		8.2221E+00
			-60.00		8.3590E+00
			-59.50		8.5052E+00
			-59.00		8.6267E+00
			-58.50		8.7354E+00
			-58.00		8.8741E+00
			-57.50		9.0421E+00
			-57.00		9.1928E+00
			-56.50		9.3146E+00
			-56.00		9.4551E+00
			-55.50		9.6476E+00
			-55.00		9.8437E+00
			-54.50		10.063E+00
			-54.00		10.283E+00
			-53.50		10.443E+00
			-53.00		10.603E+00
			-52.50		10.889E+00
			-52.00		11.192E+00
			-51.50		11.578E+00
			-51.00		11.995E+00
			-50.50		12.503E+00
			-50.00		13.070E+00
			-49.50		13.771E+00
			-49.00		14.618E+00
			-48.50		15.643E+00
			-48.00		17.004E+00
			-47.50		18.467E+00
			-47.00		20.363E+00
			-46.50		22.306E+00
			-46.00		24.788E+00
			-45.50		27.270E+00
			-45.00		30.244E+00
			-44.50		33.256E+00
			-44.00		36.351E+00
			-43.50		39.467E+00
			-43.00		42.663E+00
			-42.50		45.899E+00
			-42.00		49.183E+00
			-41.50		52.508E+00
			-41.00		55.531E+00
			-40.50		58.143E+00
			-40.00		60.689E+00
			-39.50		63.073E+00
			-39.00		65.398E+00
			-38.50		67.417E+00
			-38.00		69.418E+00
			-37.50		70.814E+00
			-37.00		72.210E+00
			-36.50		73.716E+00
			-36.00		75.235E+00
			-35.50		76.443E+00
			-35.00		77.557E+00
			-34.50		78.459E+00
			-34.00		79.227E+00
			-33.50		79.921E+00
			-33.00		80.534E+00
			-32.50		81.095E+00
			-32.00		81.569E+00
			-31.50		82.023E+00
			-31.00		82.410E+00
			-30.50		82.794E+00
			-30.00		83.154E+00
			-29.50		83.513E+00
			-29.00		83.838E+00
			-28.50		84.162E+00
			-28.00		84.454E+00
			-27.50		84.742E+00
			-27.00		85.007E+00
			-26.50		85.262E+00
			-26.00		85.497E+00
			-25.50		85.717E+00
			-25.00		85.924E+00
			-24.50		86.112E+00
			-24.00		86.294E+00
			-23.50		86.462E+00
			-23.00		86.628E+00
			-22.50		86.790E+00
			-22.00		86.952E+00
			-21.50		87.116E+00
			-21.00		87.280E+00
			-20.50		87.443E+00
			-20.00		87.605E+00
			-19.50		87.762E+00
			-19.00		87.917E+00
			-18.50		88.065E+00
			-18.00		88.210E+00
			-17.50		88.350E+00
			-17.00		88.483E+00
			-16.50		88.611E+00
			-16.00		88.731E+00
			-15.50		88.847E+00
			-15.00		88.954E+00
			-14.50		89.061E+00
			-14.00		89.163E+00
			-13.50		89.265E+00
			-13.00		89.367E+00
			-12.50		89.470E+00
			-12.00		89.571E+00
			-11.50		89.670E+00
			-11.00		89.759E+00
			-10.50		89.844E+00
			-10.00		89.915E+00
			-9.50		89.976E+00
			-9.00		90.030E+00
			-8.50		90.074E+00
			-8.00		90.116E+00
			-7.50		90.155E+00
			-7.00		90.195E+00
			-6.50		90.237E+00
			-6.00		90.279E+00
			-5.50		90.320E+00
			-5.00		90.362E+00
			-4.50		90.395E+00
			-4.00		90.427E+00
			-3.50		90.444E+00
			-3.00		90.457E+00
			-2.50		90.456E+00
			-2.00		90.448E+00
			-1.50		90.429E+00
			-1.00		90.401E+00
			-0.50		90.366E+00
			0.00		90.323E+00
			0.50		90.279E+00
			1.00		90.230E+00
			1.50		90.183E+00
			2.00		90.139E+00
			2.50		90.095E+00
			3.00		90.060E+00
			3.50		90.026E+00
			4.00		89.996E+00
			4.50		89.968E+00
			5.00		89.938E+00
			5.50		89.908E+00
			6.00		89.875E+00
			6.50		89.840E+00
			7.00		89.804E+00
			7.50		89.767E+00
			8.00		89.731E+00
			8.50		89.697E+00
			9.00		89.663E+00
			9.50		89.632E+00
			10.00		89.599E+00
			10.50		89.561E+00
			11.00		89.522E+00
			11.50		89.467E+00
			12.00		89.412E+00
			12.50		89.339E+00
			13.00		89.263E+00
			13.50		89.177E+00
			14.00		89.085E+00
			14.50		88.990E+00
			15.00		88.892E+00
			15.50		88.794E+00
			16.00		88.697E+00
			16.50		88.602E+00
			17.00		88.510E+00
			17.50		88.419E+00
			18.00		88.328E+00
			18.50		88.236E+00
			19.00		88.134E+00
			19.50		88.033E+00
			20.00		87.914E+00
			20.50		87.792E+00
			21.00		87.658E+00
			21.50		87.519E+00
			22.00		87.374E+00
			22.50		87.226E+00
			23.00		87.076E+00
			23.50		86.924E+00
			24.00		86.770E+00
			24.50		86.611E+00
			25.00		86.448E+00
			25.50		86.272E+00
			26.00		86.093E+00
			26.50		85.889E+00
			27.00		85.685E+00
			27.50		85.449E+00
			28.00		85.213E+00
			28.50		84.954E+00
			29.00		84.691E+00
			29.50		84.415E+00
			30.00		84.134E+00
			30.50		83.846E+00
			31.00		83.554E+00
			31.50		83.250E+00
			32.00		82.930E+00
			32.50		82.564E+00
			33.00		82.107E+00
			33.50		81.614E+00
			34.00		80.957E+00
			34.50		80.294E+00
			35.00		79.549E+00
			35.50		78.804E+00
			36.00		77.815E+00
			36.50		76.811E+00
			37.00		75.379E+00
			37.50		73.857E+00
			38.00		71.974E+00
			38.50		69.934E+00
			39.00		67.588E+00
			39.50		64.986E+00
			40.00		62.049E+00
			40.50		58.674E+00
			41.00		55.381E+00
			41.50		52.279E+00
			42.00		49.155E+00
			42.50		45.893E+00
			43.00		42.636E+00
			43.50		39.632E+00
			44.00		36.629E+00
			44.50		33.898E+00
			45.00		31.203E+00
			45.50		28.925E+00
			46.00		26.782E+00
			46.50		24.847E+00
			47.00		23.039E+00
			47.50		21.386E+00
			48.00		19.880E+00
			48.50		18.506E+00
			49.00		17.346E+00
			49.50		16.247E+00
			50.00		15.329E+00
			50.50		14.444E+00
			51.00		13.804E+00
			51.50		13.164E+00
			52.00		12.659E+00
			52.50		12.156E+00
			53.00		11.736E+00
			53.50		11.333E+00
			54.00		11.007E+00
			54.50		10.711E+00
			55.00		10.422E+00
			55.50		10.138E+00
			56.00		9.9212E+00
			56.50		9.7900E+00
			57.00		9.6311E+00
			57.50		9.4161E+00
			58.00		9.2182E+00
			58.50		9.0899E+00
			59.00		8.9622E+00
			59.50		8.8456E+00
			60.00		8.7290E+00
			60.50		8.6008E+00
			61.00		8.4715E+00
			61.50		8.3563E+00
			62.00		8.2445E+00
			62.50		8.1188E+00
			63.00		7.9855E+00
			63.50		7.8874E+00
			64.00		7.8218E+00
			64.50		7.7419E+00
			65.00		7.6415E+00
		END_DATA
	END_SCAN  7
END_SCAN_DATA
