BEGIN_SCAN_DATA
	FORMAT=CC-Export V1.9                  
	FILE_CREATION_DATE=11-Mar-2022 17:53:21
	LAST_MODIFIED=11-Mar-2022 17:53:21
	BEGIN_SCAN  1
		TASK_NAME=tba PDD Profiles
		PROGRAM=WaterTankScans
		COMMENT=FBF_SanPietro
		MEAS_DATE=08-Feb-2021 09:38:10
		LINAC=MRIdian
		MODALITY=X
		ISOCENTER=900.00
		INPLANE_AXIS=Y
		CROSSPLANE_AXIS=X
		DEPTH_AXIS=Depth
		INPLANE_AXIS_DIR=TARGET_GUN
		CROSSPLANE_AXIS_DIR=LEFT_RIGHT
		DEPTH_AXIS_DIR=UP_DOWN
		ENERGY=6.00
		NOMINAL_DMAX=15.00
		SSD=850.00
		SCD=450.00
		WEDGE_ANGLE=0.00
		FIELD_INPLANE=41.50
		FIELD_CROSSPLANE=41.50
		FIELD_TYPE=RECTANGULAR
		GANTRY=0.00
		GANTRY_UPRIGHT_POSITION=0
		GANTRY_ROTATION=CW
		COLL_ANGLE=0.00
		COLL_OFFSET_INPLANE=0.00
		COLL_OFFSET_CROSSPLANE=0.00
		SCAN_DEVICE=BeamScan
		SCAN_DEVICE_SETUP=BARA_LEFT_RIGHT
		ELECTROMETER=BeamScan
		RANGE_FIELD=LOW
		RANGE_REFERENCE=MEDIUM
		DETECTOR=THIMBLE_CHAMBER
		DETECTOR_RADIUS=2.40
		DETECTOR_NAME=A28MR
		DETECTOR_SN=-
		DETECTOR_CALIBRATION=588000000.00
		DETECTOR_IS_CALIBRATED=0
		DETECTOR_REFERENCE=THIMBLE_CHAMBER
		DETECTOR_REFERENCE_RADIUS=2.75
		DETECTOR_REFERENCE_NAME=A28MR
		DETECTOR_REFERENCE_SN=—
		DETECTOR_REFERENCE_IS_CALIBRATED=0
		DETECTOR_REFERENCE_CALIBRATION=303000000.00
		DETECTOR_HV=300.0
		DETECTOR_REFERENCE_HV=300.0
		DETECTOR_ORIENTATION=HORIZONTAL
		FILTER=FFF
		SCAN_SPEED_PROFILE=10.00
		SCAN_PROF_SPEED_DEP=DEPTH
		SCAN_SPEED_PDD=0.00
		SCAN_PDD_SPEED_DEP=ENERGY
		DETECTOR_TYPE=A28MR
		REF_FIELD_DEPTH=220.00
		REF_FIELD_DEFINED=ISOCENTER
		REF_FIELD_INPLANE=100.00
		REF_FIELD_CROSSPLANE=100.00
		REF_SCAN_POSITIONS=-85.00;-84.00;-83.00;-82.00;-81.00;-80.00;-79.00;-78.00;-77.00;-76.00;-75.00;-74.00;-73.00;-72.00;-71.00;-70.00;-69.00;-68.00;-67.00;-66.00;-65.00;-64.00;-63.00;-62.00;-61.00;-60.00;-59.00;-58.00;-57.00;-56.00;-55.00;-54.00;-53.00;-52.00;-51.00;-50.00;-49.00;-48.00;-47.00;-46.00;-45.00;-44.00;-43.00;-42.00;-41.00;-40.00;-39.00;-38.00;-37.00;-36.00;-35.00;-34.00;-33.00;-32.00;-31.00;-30.00;-29.00;-28.00;-27.00;-26.00;-25.00;-24.00;-23.00;-22.00;-21.00;-20.00;-19.00;-18.00;-17.00;-16.00;-15.00;-14.00;-13.00;-12.00;-11.00;-10.00;-9.00;-8.00;-7.00;-6.00;-5.00;-4.00;-3.00;-2.00;-1.00;0.00;1.00;2.00;3.00;4.00;5.00;6.00;7.00;8.00;9.00;10.00;11.00;12.00;13.00;14.00;15.00;16.00;17.00;18.00;19.00;20.00;21.00;22.00;23.00;24.00;25.00;26.00;27.00;28.00;29.00;30.00;31.00;32.00;33.00;34.00;35.00;36.00;37.00;38.00;39.00;40.00;41.00;42.00;43.00;44.00;45.00;46.00;47.00;48.00;49.00;50.00;51.00;52.00;53.00;54.00;55.00;56.00;57.00;58.00;59.00;60.00;61.00;62.00;63.00;64.00;65.00;66.00;67.00;68.00;69.00;70.00;71.00;72.00;73.00;74.00;75.00;76.00;77.00;78.00;79.00;80.00;81.00;82.00;83.00;84.00;85.00;
		REF_OVERSCAN_FACTOR=1.00
		SCAN_CURVETYPE=CROSSPLANE_PROFILE
		SCAN_DEPTH=20.00
		SCAN_OFFAXIS_INPLANE=0.00
		SCAN_OFFAXIS_CROSSPLANE=0.00
		SCAN_ANGLE=0.00
		SCAN_DIAGONAL=NOT_DIAGONAL
		SCAN_DIRECTION=POSITIVE
		MEAS_MEDIUM=WATER
		MEAS_PRESET=MEAS_CONTINUOUS_REFERENCE_SCAN
		MEAS_TIME=0.100
		MEAS_UNIT=A.U.
		INCLINATION_ANGLE=0.00
		PRESSURE=1013.25
		TEMPERATURE=20.00
		NORM_TEMPERATURE=20.00
		CORRECTION_FACTOR=1.0000
		EXPECTED_MAX_DOSE_RATE=3.00
		EPOM_DEPTH_SHIFT=0.2
		EPOM_MODE=SHIFT_PROTOCOL
		CORRECTIONS=CAX_CORR;INTERPOLATED_CORR;SYMMETRY_CORR;
		BEGIN_DATA
			-50.00		3.1196E+00
			-49.50		3.1748E+00
			-49.00		3.2422E+00
			-48.50		3.2972E+00
			-48.00		3.3591E+00
			-47.50		3.4281E+00
			-47.00		3.4971E+00
			-46.50		3.5806E+00
			-46.00		3.6657E+00
			-45.50		3.7366E+00
			-45.00		3.8078E+00
			-44.50		3.9024E+00
			-44.00		4.0012E+00
			-43.50		4.0945E+00
			-43.00		4.1877E+00
			-42.50		4.2810E+00
			-42.00		4.3805E+00
			-41.50		4.5129E+00
			-41.00		4.6433E+00
			-40.50		4.7571E+00
			-40.00		4.8728E+00
			-39.50		5.0141E+00
			-39.00		5.1726E+00
			-38.50		5.3464E+00
			-38.00		5.5176E+00
			-37.50		5.6915E+00
			-37.00		5.8661E+00
			-36.50		6.0580E+00
			-36.00		6.2675E+00
			-35.50		6.5311E+00
			-35.00		6.8055E+00
			-34.50		7.0982E+00
			-34.00		7.4071E+00
			-33.50		7.7607E+00
			-33.00		8.1314E+00
			-32.50		8.5728E+00
			-32.00		9.0335E+00
			-31.50		9.5320E+00
			-31.00		10.066E+00
			-30.50		10.744E+00
			-30.00		11.458E+00
			-29.50		12.243E+00
			-29.00		13.215E+00
			-28.50		14.320E+00
			-28.00		15.604E+00
			-27.50		17.213E+00
			-27.00		19.110E+00
			-26.50		21.529E+00
			-26.00		24.690E+00
			-25.50		28.972E+00
			-25.00		34.549E+00
			-24.50		42.216E+00
			-24.00		52.310E+00
			-23.50		65.217E+00
			-23.00		81.607E+00
			-22.50		101.10E+00
			-22.00		122.81E+00
			-21.50		146.87E+00
			-21.00		172.87E+00
			-20.50		199.93E+00
			-20.00		227.36E+00
			-19.50		255.24E+00
			-19.00		281.88E+00
			-18.50		306.79E+00
			-18.00		330.18E+00
			-17.50		351.41E+00
			-17.00		370.13E+00
			-16.50		384.77E+00
			-16.00		397.33E+00
			-15.50		407.01E+00
			-15.00		414.75E+00
			-14.50		421.25E+00
			-14.00		426.33E+00
			-13.50		430.22E+00
			-13.00		433.00E+00
			-12.50		435.55E+00
			-12.00		437.95E+00
			-11.50		439.76E+00
			-11.00		440.65E+00
			-10.50		441.80E+00
			-10.00		443.40E+00
			-9.50		444.38E+00
			-9.00		445.11E+00
			-8.50		445.60E+00
			-8.00		446.14E+00
			-7.50		446.85E+00
			-7.00		447.43E+00
			-6.50		447.99E+00
			-6.00		448.62E+00
			-5.50		449.05E+00
			-5.00		449.42E+00
			-4.50		449.83E+00
			-4.00		450.35E+00
			-3.50		450.89E+00
			-3.00		451.24E+00
			-2.50		450.99E+00
			-2.00		450.77E+00
			-1.50		451.14E+00
			-1.00		451.65E+00
			-0.50		452.10E+00
			0.00		452.38E+00
			0.50		452.10E+00
			1.00		451.65E+00
			1.50		451.14E+00
			2.00		450.77E+00
			2.50		450.99E+00
			3.00		451.24E+00
			3.50		450.89E+00
			4.00		450.35E+00
			4.50		449.83E+00
			5.00		449.42E+00
			5.50		449.05E+00
			6.00		448.62E+00
			6.50		447.99E+00
			7.00		447.43E+00
			7.50		446.85E+00
			8.00		446.14E+00
			8.50		445.60E+00
			9.00		445.11E+00
			9.50		444.38E+00
			10.00		443.40E+00
			10.50		441.80E+00
			11.00		440.65E+00
			11.50		439.76E+00
			12.00		437.95E+00
			12.50		435.55E+00
			13.00		433.00E+00
			13.50		430.22E+00
			14.00		426.33E+00
			14.50		421.25E+00
			15.00		414.75E+00
			15.50		407.01E+00
			16.00		397.33E+00
			16.50		384.77E+00
			17.00		370.13E+00
			17.50		351.41E+00
			18.00		330.18E+00
			18.50		306.79E+00
			19.00		281.88E+00
			19.50		255.24E+00
			20.00		227.36E+00
			20.50		199.93E+00
			21.00		172.87E+00
			21.50		146.87E+00
			22.00		122.81E+00
			22.50		101.10E+00
			23.00		81.607E+00
			23.50		65.217E+00
			24.00		52.310E+00
			24.50		42.216E+00
			25.00		34.549E+00
			25.50		28.972E+00
			26.00		24.690E+00
			26.50		21.529E+00
			27.00		19.110E+00
			27.50		17.213E+00
			28.00		15.604E+00
			28.50		14.320E+00
			29.00		13.215E+00
			29.50		12.243E+00
			30.00		11.458E+00
			30.50		10.744E+00
			31.00		10.066E+00
			31.50		9.5320E+00
			32.00		9.0335E+00
			32.50		8.5728E+00
			33.00		8.1314E+00
			33.50		7.7607E+00
			34.00		7.4071E+00
			34.50		7.0982E+00
			35.00		6.8055E+00
			35.50		6.5311E+00
			36.00		6.2675E+00
			36.50		6.0580E+00
			37.00		5.8661E+00
			37.50		5.6915E+00
			38.00		5.5176E+00
			38.50		5.3464E+00
			39.00		5.1726E+00
			39.50		5.0141E+00
			40.00		4.8728E+00
			40.50		4.7571E+00
			41.00		4.6433E+00
			41.50		4.5129E+00
			42.00		4.3805E+00
			42.50		4.2810E+00
			43.00		4.1877E+00
			43.50		4.0945E+00
			44.00		4.0012E+00
			44.50		3.9024E+00
			45.00		3.8078E+00
			45.50		3.7366E+00
			46.00		3.6657E+00
			46.50		3.5806E+00
			47.00		3.4971E+00
			47.50		3.4281E+00
			48.00		3.3591E+00
			48.50		3.2972E+00
			49.00		3.2422E+00
			49.50		3.1748E+00
			50.00		3.1196E+00
		END_DATA
	END_SCAN  1
	BEGIN_SCAN  2
		TASK_NAME=tba PDD Profiles
		PROGRAM=WaterTankScans
		COMMENT=FBF_SanPietro
		MEAS_DATE=08-Feb-2021 09:38:10
		LINAC=MRIdian
		MODALITY=X
		ISOCENTER=900.00
		INPLANE_AXIS=Y
		CROSSPLANE_AXIS=X
		DEPTH_AXIS=Depth
		INPLANE_AXIS_DIR=TARGET_GUN
		CROSSPLANE_AXIS_DIR=LEFT_RIGHT
		DEPTH_AXIS_DIR=UP_DOWN
		ENERGY=6.00
		NOMINAL_DMAX=15.00
		SSD=850.00
		SCD=450.00
		WEDGE_ANGLE=0.00
		FIELD_INPLANE=41.50
		FIELD_CROSSPLANE=41.50
		FIELD_TYPE=RECTANGULAR
		GANTRY=0.00
		GANTRY_UPRIGHT_POSITION=0
		GANTRY_ROTATION=CW
		COLL_ANGLE=0.00
		COLL_OFFSET_INPLANE=0.00
		COLL_OFFSET_CROSSPLANE=0.00
		SCAN_DEVICE=BeamScan
		SCAN_DEVICE_SETUP=BARA_LEFT_RIGHT
		ELECTROMETER=BeamScan
		RANGE_FIELD=LOW
		RANGE_REFERENCE=MEDIUM
		DETECTOR=THIMBLE_CHAMBER
		DETECTOR_RADIUS=2.40
		DETECTOR_NAME=A28MR
		DETECTOR_SN=-
		DETECTOR_CALIBRATION=588000000.00
		DETECTOR_IS_CALIBRATED=0
		DETECTOR_REFERENCE=THIMBLE_CHAMBER
		DETECTOR_REFERENCE_RADIUS=2.75
		DETECTOR_REFERENCE_NAME=A28MR
		DETECTOR_REFERENCE_SN=—
		DETECTOR_REFERENCE_IS_CALIBRATED=0
		DETECTOR_REFERENCE_CALIBRATION=303000000.00
		DETECTOR_HV=300.0
		DETECTOR_REFERENCE_HV=300.0
		DETECTOR_ORIENTATION=HORIZONTAL
		FILTER=FFF
		SCAN_SPEED_PROFILE=10.00
		SCAN_PROF_SPEED_DEP=DEPTH
		SCAN_SPEED_PDD=0.00
		SCAN_PDD_SPEED_DEP=ENERGY
		DETECTOR_TYPE=A28MR
		REF_FIELD_DEPTH=220.00
		REF_FIELD_DEFINED=ISOCENTER
		REF_FIELD_INPLANE=100.00
		REF_FIELD_CROSSPLANE=100.00
		REF_SCAN_POSITIONS=-85.00;-84.00;-83.00;-82.00;-81.00;-80.00;-79.00;-78.00;-77.00;-76.00;-75.00;-74.00;-73.00;-72.00;-71.00;-70.00;-69.00;-68.00;-67.00;-66.00;-65.00;-64.00;-63.00;-62.00;-61.00;-60.00;-59.00;-58.00;-57.00;-56.00;-55.00;-54.00;-53.00;-52.00;-51.00;-50.00;-49.00;-48.00;-47.00;-46.00;-45.00;-44.00;-43.00;-42.00;-41.00;-40.00;-39.00;-38.00;-37.00;-36.00;-35.00;-34.00;-33.00;-32.00;-31.00;-30.00;-29.00;-28.00;-27.00;-26.00;-25.00;-24.00;-23.00;-22.00;-21.00;-20.00;-19.00;-18.00;-17.00;-16.00;-15.00;-14.00;-13.00;-12.00;-11.00;-10.00;-9.00;-8.00;-7.00;-6.00;-5.00;-4.00;-3.00;-2.00;-1.00;0.00;1.00;2.00;3.00;4.00;5.00;6.00;7.00;8.00;9.00;10.00;11.00;12.00;13.00;14.00;15.00;16.00;17.00;18.00;19.00;20.00;21.00;22.00;23.00;24.00;25.00;26.00;27.00;28.00;29.00;30.00;31.00;32.00;33.00;34.00;35.00;36.00;37.00;38.00;39.00;40.00;41.00;42.00;43.00;44.00;45.00;46.00;47.00;48.00;49.00;50.00;51.00;52.00;53.00;54.00;55.00;56.00;57.00;58.00;59.00;60.00;61.00;62.00;63.00;64.00;65.00;66.00;67.00;68.00;69.00;70.00;71.00;72.00;73.00;74.00;75.00;76.00;77.00;78.00;79.00;80.00;81.00;82.00;83.00;84.00;85.00;
		REF_OVERSCAN_FACTOR=1.00
		SCAN_CURVETYPE=CROSSPLANE_PROFILE
		SCAN_DEPTH=55.00
		SCAN_OFFAXIS_INPLANE=0.00
		SCAN_OFFAXIS_CROSSPLANE=0.00
		SCAN_ANGLE=0.00
		SCAN_DIAGONAL=NOT_DIAGONAL
		SCAN_DIRECTION=POSITIVE
		MEAS_MEDIUM=WATER
		MEAS_PRESET=MEAS_CONTINUOUS_REFERENCE_SCAN
		MEAS_TIME=0.100
		MEAS_UNIT=A.U.
		INCLINATION_ANGLE=0.00
		PRESSURE=1013.25
		TEMPERATURE=20.00
		NORM_TEMPERATURE=20.00
		CORRECTION_FACTOR=1.0000
		EXPECTED_MAX_DOSE_RATE=3.00
		EPOM_DEPTH_SHIFT=0.2
		EPOM_MODE=SHIFT_PROTOCOL
		CORRECTIONS=MODIFIED_CORR;CAX_CORR;INTERPOLATED_CORR;SYMMETRY_CORR;
		BEGIN_DATA
			-53.00		4.5150E+00
			-52.50		4.7170E+00
			-52.00		4.7600E+00
			-51.50		4.7600E+00
			-51.00		4.8830E+00
			-50.50		5.0870E+00
			-50.00		5.1928E+00
			-49.50		5.1928E+00
			-49.00		5.2607E+00
			-48.50		5.4607E+00
			-48.00		5.6618E+00
			-47.50		5.8680E+00
			-47.00		6.0582E+00
			-46.50		6.0582E+00
			-46.00		6.0582E+00
			-45.50		6.2396E+00
			-45.00		6.4479E+00
			-44.50		6.6465E+00
			-44.00		6.8426E+00
			-43.50		7.0447E+00
			-43.00		7.2508E+00
			-42.50		7.4559E+00
			-42.00		7.6600E+00
			-41.50		7.8618E+00
			-41.00		8.0599E+00
			-40.50		8.2594E+00
			-40.00		8.4656E+00
			-39.50		8.6711E+00
			-39.00		8.8691E+00
			-38.50		9.0672E+00
			-38.00		9.4577E+00
			-37.50		9.8699E+00
			-37.00		10.114E+00
			-36.50		10.316E+00
			-36.00		10.646E+00
			-35.50		11.042E+00
			-35.00		11.446E+00
			-34.50		11.858E+00
			-34.00		12.266E+00
			-33.50		12.666E+00
			-33.00		13.222E+00
			-32.50		13.832E+00
			-32.00		14.483E+00
			-31.50		15.188E+00
			-31.00		15.926E+00
			-30.50		16.828E+00
			-30.00		17.750E+00
			-29.50		18.840E+00
			-29.00		19.964E+00
			-28.50		21.500E+00
			-28.00		23.107E+00
			-27.50		25.402E+00
			-27.00		28.139E+00
			-26.50		32.137E+00
			-26.00		37.300E+00
			-25.50		43.975E+00
			-25.00		53.055E+00
			-24.50		63.678E+00
			-24.00		78.436E+00
			-23.50		94.109E+00
			-23.00		113.62E+00
			-22.50		133.43E+00
			-22.00		155.66E+00
			-21.50		178.18E+00
			-21.00		202.12E+00
			-20.50		226.46E+00
			-20.00		250.51E+00
			-19.50		274.27E+00
			-19.00		296.51E+00
			-18.50		317.41E+00
			-18.00		336.42E+00
			-17.50		352.82E+00
			-17.00		367.76E+00
			-16.50		378.59E+00
			-16.00		388.72E+00
			-15.50		395.80E+00
			-15.00		402.39E+00
			-14.50		406.66E+00
			-14.00		410.76E+00
			-13.50		413.64E+00
			-13.00		416.18E+00
			-12.50		418.20E+00
			-12.00		420.02E+00
			-11.50		421.55E+00
			-11.00		422.87E+00
			-10.50		424.02E+00
			-10.00		424.82E+00
			-9.50		425.56E+00
			-9.00		426.47E+00
			-8.50		427.35E+00
			-8.00		427.97E+00
			-7.50		428.57E+00
			-7.00		428.82E+00
			-6.50		429.02E+00
			-6.00		429.66E+00
			-5.50		430.37E+00
			-5.00		430.82E+00
			-4.50		431.22E+00
			-4.00		431.51E+00
			-3.50		431.61E+00
			-3.00		431.91E+00
			-2.50		432.51E+00
			-2.00		432.96E+00
			-1.50		433.17E+00
			-1.00		433.31E+00
			-0.50		433.02E+00
			0.00		432.77E+00
			0.50		433.02E+00
			1.00		433.31E+00
			1.50		433.17E+00
			2.00		432.96E+00
			2.50		432.51E+00
			3.00		431.91E+00
			3.50		431.61E+00
			4.00		431.51E+00
			4.50		431.22E+00
			5.00		430.82E+00
			5.50		430.37E+00
			6.00		429.66E+00
			6.50		429.02E+00
			7.00		428.82E+00
			7.50		428.57E+00
			8.00		427.97E+00
			8.50		427.35E+00
			9.00		426.47E+00
			9.50		425.56E+00
			10.00		424.82E+00
			10.50		424.02E+00
			11.00		422.87E+00
			11.50		421.55E+00
			12.00		420.02E+00
			12.50		418.20E+00
			13.00		416.18E+00
			13.50		413.64E+00
			14.00		410.76E+00
			14.50		406.66E+00
			15.00		402.39E+00
			15.50		395.80E+00
			16.00		388.72E+00
			16.50		378.59E+00
			17.00		367.76E+00
			17.50		352.82E+00
			18.00		336.42E+00
			18.50		317.41E+00
			19.00		296.51E+00
			19.50		274.27E+00
			20.00		250.51E+00
			20.50		226.46E+00
			21.00		202.12E+00
			21.50		178.18E+00
			22.00		155.66E+00
			22.50		133.43E+00
			23.00		113.62E+00
			23.50		94.109E+00
			24.00		78.436E+00
			24.50		63.678E+00
			25.00		53.055E+00
			25.50		43.975E+00
			26.00		37.300E+00
			26.50		32.137E+00
			27.00		28.139E+00
			27.50		25.402E+00
			28.00		23.107E+00
			28.50		21.500E+00
			29.00		19.964E+00
			29.50		18.840E+00
			30.00		17.750E+00
			30.50		16.828E+00
			31.00		15.926E+00
			31.50		15.188E+00
			32.00		14.483E+00
			32.50		13.832E+00
			33.00		13.222E+00
			33.50		12.666E+00
			34.00		12.266E+00
			34.50		11.858E+00
			35.00		11.446E+00
			35.50		11.042E+00
			36.00		10.646E+00
			36.50		10.316E+00
			37.00		10.114E+00
			37.50		9.8699E+00
			38.00		9.4577E+00
			38.50		9.0672E+00
			39.00		8.8691E+00
			39.50		8.6711E+00
			40.00		8.4656E+00
			40.50		8.2594E+00
			41.00		8.0599E+00
			41.50		7.8618E+00
			42.00		7.6600E+00
			42.50		7.4559E+00
			43.00		7.2508E+00
			43.50		7.0447E+00
			44.00		6.8426E+00
			44.50		6.6465E+00
			45.00		6.4479E+00
			45.50		6.2396E+00
			46.00		6.0582E+00
			46.50		6.0582E+00
			47.00		6.0582E+00
			47.50		5.8680E+00
			48.00		5.6618E+00
			48.50		5.4607E+00
			49.00		5.2607E+00
			49.50		5.1928E+00
			50.00		5.1928E+00
			50.50		5.0870E+00
			51.00		4.8830E+00
			51.50		4.7600E+00
			52.00		4.7600E+00
			52.50		4.7170E+00
			53.00		4.5150E+00
		END_DATA
	END_SCAN  2
	BEGIN_SCAN  3
		TASK_NAME=tba PDD Profiles
		PROGRAM=WaterTankScans
		COMMENT=FBF_SanPietro
		MEAS_DATE=08-Feb-2021 09:38:10
		LINAC=MRIdian
		MODALITY=X
		ISOCENTER=900.00
		INPLANE_AXIS=Y
		CROSSPLANE_AXIS=X
		DEPTH_AXIS=Depth
		INPLANE_AXIS_DIR=TARGET_GUN
		CROSSPLANE_AXIS_DIR=LEFT_RIGHT
		DEPTH_AXIS_DIR=UP_DOWN
		ENERGY=6.00
		NOMINAL_DMAX=15.00
		SSD=850.00
		SCD=450.00
		WEDGE_ANGLE=0.00
		FIELD_INPLANE=41.50
		FIELD_CROSSPLANE=41.50
		FIELD_TYPE=RECTANGULAR
		GANTRY=0.00
		GANTRY_UPRIGHT_POSITION=0
		GANTRY_ROTATION=CW
		COLL_ANGLE=0.00
		COLL_OFFSET_INPLANE=0.00
		COLL_OFFSET_CROSSPLANE=0.00
		SCAN_DEVICE=BeamScan
		SCAN_DEVICE_SETUP=BARA_LEFT_RIGHT
		ELECTROMETER=BeamScan
		RANGE_FIELD=LOW
		RANGE_REFERENCE=MEDIUM
		DETECTOR=THIMBLE_CHAMBER
		DETECTOR_RADIUS=2.40
		DETECTOR_NAME=A28MR
		DETECTOR_SN=-
		DETECTOR_CALIBRATION=588000000.00
		DETECTOR_IS_CALIBRATED=0
		DETECTOR_REFERENCE=THIMBLE_CHAMBER
		DETECTOR_REFERENCE_RADIUS=2.75
		DETECTOR_REFERENCE_NAME=A28MR
		DETECTOR_REFERENCE_SN=—
		DETECTOR_REFERENCE_IS_CALIBRATED=0
		DETECTOR_REFERENCE_CALIBRATION=303000000.00
		DETECTOR_HV=300.0
		DETECTOR_REFERENCE_HV=300.0
		DETECTOR_ORIENTATION=HORIZONTAL
		FILTER=FFF
		SCAN_SPEED_PROFILE=10.00
		SCAN_PROF_SPEED_DEP=DEPTH
		SCAN_SPEED_PDD=0.00
		SCAN_PDD_SPEED_DEP=ENERGY
		DETECTOR_TYPE=A28MR
		REF_FIELD_DEPTH=220.00
		REF_FIELD_DEFINED=ISOCENTER
		REF_FIELD_INPLANE=100.00
		REF_FIELD_CROSSPLANE=100.00
		REF_SCAN_POSITIONS=-85.00;-84.00;-83.00;-82.00;-81.00;-80.00;-79.00;-78.00;-77.00;-76.00;-75.00;-74.00;-73.00;-72.00;-71.00;-70.00;-69.00;-68.00;-67.00;-66.00;-65.00;-64.00;-63.00;-62.00;-61.00;-60.00;-59.00;-58.00;-57.00;-56.00;-55.00;-54.00;-53.00;-52.00;-51.00;-50.00;-49.00;-48.00;-47.00;-46.00;-45.00;-44.00;-43.00;-42.00;-41.00;-40.00;-39.00;-38.00;-37.00;-36.00;-35.00;-34.00;-33.00;-32.00;-31.00;-30.00;-29.00;-28.00;-27.00;-26.00;-25.00;-24.00;-23.00;-22.00;-21.00;-20.00;-19.00;-18.00;-17.00;-16.00;-15.00;-14.00;-13.00;-12.00;-11.00;-10.00;-9.00;-8.00;-7.00;-6.00;-5.00;-4.00;-3.00;-2.00;-1.00;0.00;1.00;2.00;3.00;4.00;5.00;6.00;7.00;8.00;9.00;10.00;11.00;12.00;13.00;14.00;15.00;16.00;17.00;18.00;19.00;20.00;21.00;22.00;23.00;24.00;25.00;26.00;27.00;28.00;29.00;30.00;31.00;32.00;33.00;34.00;35.00;36.00;37.00;38.00;39.00;40.00;41.00;42.00;43.00;44.00;45.00;46.00;47.00;48.00;49.00;50.00;51.00;52.00;53.00;54.00;55.00;56.00;57.00;58.00;59.00;60.00;61.00;62.00;63.00;64.00;65.00;66.00;67.00;68.00;69.00;70.00;71.00;72.00;73.00;74.00;75.00;76.00;77.00;78.00;79.00;80.00;81.00;82.00;83.00;84.00;85.00;
		REF_OVERSCAN_FACTOR=1.00
		SCAN_CURVETYPE=CROSSPLANE_PROFILE
		SCAN_DEPTH=100.00
		SCAN_OFFAXIS_INPLANE=0.00
		SCAN_OFFAXIS_CROSSPLANE=0.00
		SCAN_ANGLE=0.00
		SCAN_DIAGONAL=NOT_DIAGONAL
		SCAN_DIRECTION=POSITIVE
		MEAS_MEDIUM=WATER
		MEAS_PRESET=MEAS_CONTINUOUS_REFERENCE_SCAN
		MEAS_TIME=0.100
		MEAS_UNIT=A.U.
		INCLINATION_ANGLE=0.00
		PRESSURE=1013.25
		TEMPERATURE=20.00
		NORM_TEMPERATURE=20.00
		CORRECTION_FACTOR=1.0000
		EXPECTED_MAX_DOSE_RATE=3.00
		EPOM_DEPTH_SHIFT=0.2
		EPOM_MODE=SHIFT_PROTOCOL
		CORRECTIONS=MODIFIED_CORR;CAX_CORR;INTERPOLATED_CORR;SYMMETRY_CORR;
		BEGIN_DATA
			-53.50		5.6255E+00
			-53.00		5.6718E+00
			-52.50		5.7762E+00
			-52.00		5.9327E+00
			-51.50		6.0331E+00
			-51.00		6.1493E+00
			-50.50		6.3541E+00
			-50.00		6.4991E+00
			-49.50		6.5995E+00
			-49.00		6.7500E+00
			-48.50		6.8580E+00
			-48.00		6.9583E+00
			-47.50		7.1381E+00
			-47.00		7.3230E+00
			-46.50		7.4243E+00
			-46.00		7.5322E+00
			-45.50		7.7339E+00
			-45.00		7.9367E+00
			-44.50		8.1382E+00
			-44.00		8.3379E+00
			-43.50		8.5408E+00
			-43.00		8.7477E+00
			-42.50		8.9522E+00
			-42.00		9.1538E+00
			-41.50		9.3561E+00
			-41.00		9.5568E+00
			-40.50		9.7575E+00
			-40.00		9.9613E+00
			-39.50		10.191E+00
			-39.00		10.495E+00
			-38.50		10.787E+00
			-38.00		11.049E+00
			-37.50		11.354E+00
			-37.00		11.758E+00
			-36.50		12.163E+00
			-36.00		12.538E+00
			-35.50		12.843E+00
			-35.00		13.165E+00
			-34.50		13.572E+00
			-34.00		14.042E+00
			-33.50		14.641E+00
			-33.00		15.246E+00
			-32.50		15.771E+00
			-32.00		16.316E+00
			-31.50		16.992E+00
			-31.00		17.710E+00
			-30.50		18.653E+00
			-30.00		19.668E+00
			-29.50		20.933E+00
			-29.00		22.263E+00
			-28.50		24.085E+00
			-28.00		26.291E+00
			-27.50		29.286E+00
			-27.00		33.357E+00
			-26.50		38.295E+00
			-26.00		45.031E+00
			-25.50		52.754E+00
			-25.00		63.197E+00
			-24.50		74.424E+00
			-24.00		87.975E+00
			-23.50		102.05E+00
			-23.00		117.76E+00
			-22.50		133.82E+00
			-22.00		150.46E+00
			-21.50		167.15E+00
			-21.00		183.45E+00
			-20.50		199.63E+00
			-20.00		215.04E+00
			-19.50		229.71E+00
			-19.00		243.13E+00
			-18.50		254.54E+00
			-18.00		264.87E+00
			-17.50		272.82E+00
			-17.00		280.07E+00
			-16.50		285.19E+00
			-16.00		289.86E+00
			-15.50		293.31E+00
			-15.00		296.49E+00
			-14.50		298.55E+00
			-14.00		300.30E+00
			-13.50		302.02E+00
			-13.00		303.73E+00
			-12.50		304.88E+00
			-12.00		305.60E+00
			-11.50		306.30E+00
			-11.00		307.21E+00
			-10.50		308.15E+00
			-10.00		308.76E+00
			-9.50		309.27E+00
			-9.00		309.78E+00
			-8.50		310.29E+00
			-8.00		310.78E+00
			-7.50		311.26E+00
			-7.00		311.49E+00
			-6.50		311.71E+00
			-6.00		312.27E+00
			-5.50		312.77E+00
			-5.00		312.85E+00
			-4.50		312.95E+00
			-4.00		313.47E+00
			-3.50		314.07E+00
			-3.00		314.36E+00
			-2.50		314.26E+00
			-2.00		314.11E+00
			-1.50		314.22E+00
			-1.00		314.43E+00
			-0.50		314.76E+00
			0.00		314.98E+00
			0.50		314.76E+00
			1.00		314.43E+00
			1.50		314.22E+00
			2.00		314.11E+00
			2.50		314.26E+00
			3.00		314.36E+00
			3.50		314.07E+00
			4.00		313.47E+00
			4.50		312.95E+00
			5.00		312.85E+00
			5.50		312.77E+00
			6.00		312.27E+00
			6.50		311.71E+00
			7.00		311.49E+00
			7.50		311.26E+00
			8.00		310.78E+00
			8.50		310.29E+00
			9.00		309.78E+00
			9.50		309.27E+00
			10.00		308.76E+00
			10.50		308.15E+00
			11.00		307.21E+00
			11.50		306.30E+00
			12.00		305.60E+00
			12.50		304.88E+00
			13.00		303.73E+00
			13.50		302.02E+00
			14.00		300.30E+00
			14.50		298.55E+00
			15.00		296.49E+00
			15.50		293.31E+00
			16.00		289.86E+00
			16.50		285.19E+00
			17.00		280.07E+00
			17.50		272.82E+00
			18.00		264.87E+00
			18.50		254.54E+00
			19.00		243.13E+00
			19.50		229.71E+00
			20.00		215.04E+00
			20.50		199.63E+00
			21.00		183.45E+00
			21.50		167.15E+00
			22.00		150.46E+00
			22.50		133.82E+00
			23.00		117.76E+00
			23.50		102.05E+00
			24.00		87.975E+00
			24.50		74.424E+00
			25.00		63.197E+00
			25.50		52.754E+00
			26.00		45.031E+00
			26.50		38.295E+00
			27.00		33.357E+00
			27.50		29.286E+00
			28.00		26.291E+00
			28.50		24.085E+00
			29.00		22.263E+00
			29.50		20.933E+00
			30.00		19.668E+00
			30.50		18.653E+00
			31.00		17.710E+00
			31.50		16.992E+00
			32.00		16.316E+00
			32.50		15.771E+00
			33.00		15.246E+00
			33.50		14.641E+00
			34.00		14.042E+00
			34.50		13.572E+00
			35.00		13.165E+00
			35.50		12.843E+00
			36.00		12.538E+00
			36.50		12.163E+00
			37.00		11.758E+00
			37.50		11.354E+00
			38.00		11.049E+00
			38.50		10.787E+00
			39.00		10.495E+00
			39.50		10.191E+00
			40.00		9.9613E+00
			40.50		9.7575E+00
			41.00		9.5568E+00
			41.50		9.3561E+00
			42.00		9.1538E+00
			42.50		8.9522E+00
			43.00		8.7477E+00
			43.50		8.5408E+00
			44.00		8.3379E+00
			44.50		8.1382E+00
			45.00		7.9367E+00
			45.50		7.7339E+00
			46.00		7.5322E+00
			46.50		7.4243E+00
			47.00		7.3230E+00
			47.50		7.1381E+00
			48.00		6.9583E+00
			48.50		6.8580E+00
			49.00		6.7500E+00
			49.50		6.5995E+00
			50.00		6.4991E+00
			50.50		6.3541E+00
			51.00		6.1493E+00
			51.50		6.0331E+00
			52.00		5.9327E+00
			52.50		5.7762E+00
			53.00		5.6718E+00
			53.50		5.6255E+00
		END_DATA
	END_SCAN  3
	BEGIN_SCAN  4
		TASK_NAME=tba PDD Profiles
		PROGRAM=WaterTankScans
		COMMENT=FBF_SanPietro
		MEAS_DATE=08-Feb-2021 09:38:10
		LINAC=MRIdian
		MODALITY=X
		ISOCENTER=900.00
		INPLANE_AXIS=Y
		CROSSPLANE_AXIS=X
		DEPTH_AXIS=Depth
		INPLANE_AXIS_DIR=TARGET_GUN
		CROSSPLANE_AXIS_DIR=LEFT_RIGHT
		DEPTH_AXIS_DIR=UP_DOWN
		ENERGY=6.00
		NOMINAL_DMAX=15.00
		SSD=850.00
		SCD=450.00
		WEDGE_ANGLE=0.00
		FIELD_INPLANE=41.50
		FIELD_CROSSPLANE=41.50
		FIELD_TYPE=RECTANGULAR
		GANTRY=0.00
		GANTRY_UPRIGHT_POSITION=0
		GANTRY_ROTATION=CW
		COLL_ANGLE=0.00
		COLL_OFFSET_INPLANE=0.00
		COLL_OFFSET_CROSSPLANE=0.00
		SCAN_DEVICE=BeamScan
		SCAN_DEVICE_SETUP=BARA_LEFT_RIGHT
		ELECTROMETER=BeamScan
		RANGE_FIELD=LOW
		RANGE_REFERENCE=MEDIUM
		DETECTOR=THIMBLE_CHAMBER
		DETECTOR_RADIUS=2.40
		DETECTOR_NAME=A28MR
		DETECTOR_SN=-
		DETECTOR_CALIBRATION=588000000.00
		DETECTOR_IS_CALIBRATED=0
		DETECTOR_REFERENCE=THIMBLE_CHAMBER
		DETECTOR_REFERENCE_RADIUS=2.75
		DETECTOR_REFERENCE_NAME=A28MR
		DETECTOR_REFERENCE_SN=—
		DETECTOR_REFERENCE_IS_CALIBRATED=0
		DETECTOR_REFERENCE_CALIBRATION=303000000.00
		DETECTOR_HV=300.0
		DETECTOR_REFERENCE_HV=300.0
		DETECTOR_ORIENTATION=HORIZONTAL
		FILTER=FFF
		SCAN_SPEED_PROFILE=10.00
		SCAN_PROF_SPEED_DEP=DEPTH
		SCAN_SPEED_PDD=0.00
		SCAN_PDD_SPEED_DEP=ENERGY
		DETECTOR_TYPE=A28MR
		REF_FIELD_DEPTH=220.00
		REF_FIELD_DEFINED=ISOCENTER
		REF_FIELD_INPLANE=100.00
		REF_FIELD_CROSSPLANE=100.00
		REF_SCAN_POSITIONS=-85.00;-84.00;-83.00;-82.00;-81.00;-80.00;-79.00;-78.00;-77.00;-76.00;-75.00;-74.00;-73.00;-72.00;-71.00;-70.00;-69.00;-68.00;-67.00;-66.00;-65.00;-64.00;-63.00;-62.00;-61.00;-60.00;-59.00;-58.00;-57.00;-56.00;-55.00;-54.00;-53.00;-52.00;-51.00;-50.00;-49.00;-48.00;-47.00;-46.00;-45.00;-44.00;-43.00;-42.00;-41.00;-40.00;-39.00;-38.00;-37.00;-36.00;-35.00;-34.00;-33.00;-32.00;-31.00;-30.00;-29.00;-28.00;-27.00;-26.00;-25.00;-24.00;-23.00;-22.00;-21.00;-20.00;-19.00;-18.00;-17.00;-16.00;-15.00;-14.00;-13.00;-12.00;-11.00;-10.00;-9.00;-8.00;-7.00;-6.00;-5.00;-4.00;-3.00;-2.00;-1.00;0.00;1.00;2.00;3.00;4.00;5.00;6.00;7.00;8.00;9.00;10.00;11.00;12.00;13.00;14.00;15.00;16.00;17.00;18.00;19.00;20.00;21.00;22.00;23.00;24.00;25.00;26.00;27.00;28.00;29.00;30.00;31.00;32.00;33.00;34.00;35.00;36.00;37.00;38.00;39.00;40.00;41.00;42.00;43.00;44.00;45.00;46.00;47.00;48.00;49.00;50.00;51.00;52.00;53.00;54.00;55.00;56.00;57.00;58.00;59.00;60.00;61.00;62.00;63.00;64.00;65.00;66.00;67.00;68.00;69.00;70.00;71.00;72.00;73.00;74.00;75.00;76.00;77.00;78.00;79.00;80.00;81.00;82.00;83.00;84.00;85.00;
		REF_OVERSCAN_FACTOR=1.00
		SCAN_CURVETYPE=CROSSPLANE_PROFILE
		SCAN_DEPTH=150.00
		SCAN_OFFAXIS_INPLANE=0.00
		SCAN_OFFAXIS_CROSSPLANE=0.00
		SCAN_ANGLE=0.00
		SCAN_DIAGONAL=NOT_DIAGONAL
		SCAN_DIRECTION=POSITIVE
		MEAS_MEDIUM=WATER
		MEAS_PRESET=MEAS_CONTINUOUS_REFERENCE_SCAN
		MEAS_TIME=0.100
		MEAS_UNIT=A.U.
		INCLINATION_ANGLE=0.00
		PRESSURE=1013.25
		TEMPERATURE=20.00
		NORM_TEMPERATURE=20.00
		CORRECTION_FACTOR=1.0000
		EXPECTED_MAX_DOSE_RATE=3.00
		EPOM_DEPTH_SHIFT=0.2
		EPOM_MODE=SHIFT_PROTOCOL
		CORRECTIONS=CAX_CORR;INTERPOLATED_CORR;SYMMETRY_CORR;
		BEGIN_DATA
			-53.00		5.9059E+00
			-52.50		6.0043E+00
			-52.00		6.1067E+00
			-51.50		6.2204E+00
			-51.00		6.3349E+00
			-50.50		6.4479E+00
			-50.00		6.5609E+00
			-49.50		6.6831E+00
			-49.00		6.8061E+00
			-48.50		6.9180E+00
			-48.00		7.0300E+00
			-47.50		7.1628E+00
			-47.00		7.2980E+00
			-46.50		7.4460E+00
			-46.00		7.5947E+00
			-45.50		7.7361E+00
			-45.00		7.8966E+00
			-44.50		8.0634E+00
			-44.00		8.2085E+00
			-43.50		8.3571E+00
			-43.00		8.5441E+00
			-42.50		8.7307E+00
			-42.00		8.9056E+00
			-41.50		9.0808E+00
			-41.00		9.2810E+00
			-40.50		9.4878E+00
			-40.00		9.7005E+00
			-39.50		9.9128E+00
			-39.00		10.141E+00
			-38.50		10.373E+00
			-38.00		10.625E+00
			-37.50		10.886E+00
			-37.00		11.167E+00
			-36.50		11.482E+00
			-36.00		11.805E+00
			-35.50		12.135E+00
			-35.00		12.488E+00
			-34.50		12.901E+00
			-34.00		13.316E+00
			-33.50		13.722E+00
			-33.00		14.146E+00
			-32.50		14.678E+00
			-32.00		15.229E+00
			-31.50		15.926E+00
			-31.00		16.681E+00
			-30.50		17.673E+00
			-30.00		18.782E+00
			-29.50		20.253E+00
			-29.00		22.077E+00
			-28.50		24.465E+00
			-28.00		27.715E+00
			-27.50		31.526E+00
			-27.00		36.670E+00
			-26.50		42.408E+00
			-26.00		49.899E+00
			-25.50		57.829E+00
			-25.00		67.423E+00
			-24.50		77.308E+00
			-24.00		88.052E+00
			-23.50		98.980E+00
			-23.00		110.31E+00
			-22.50		121.74E+00
			-22.00		132.93E+00
			-21.50		143.91E+00
			-21.00		154.08E+00
			-20.50		163.67E+00
			-20.00		172.46E+00
			-19.50		179.92E+00
			-19.00		186.70E+00
			-18.50		192.03E+00
			-18.00		197.01E+00
			-17.50		200.71E+00
			-17.00		204.10E+00
			-16.50		206.30E+00
			-16.00		208.33E+00
			-15.50		210.02E+00
			-15.00		211.64E+00
			-14.50		212.89E+00
			-14.00		214.04E+00
			-13.50		214.85E+00
			-13.00		215.37E+00
			-12.50		215.85E+00
			-12.00		216.40E+00
			-11.50		217.00E+00
			-11.00		217.51E+00
			-10.50		217.98E+00
			-10.00		218.34E+00
			-9.50		218.61E+00
			-9.00		218.80E+00
			-8.50		219.07E+00
			-8.00		219.51E+00
			-7.50		219.95E+00
			-7.00		220.18E+00
			-6.50		220.37E+00
			-6.00		220.52E+00
			-5.50		220.69E+00
			-5.00		220.99E+00
			-4.50		221.33E+00
			-4.00		221.53E+00
			-3.50		221.66E+00
			-3.00		221.82E+00
			-2.50		221.96E+00
			-2.00		222.11E+00
			-1.50		222.28E+00
			-1.00		222.35E+00
			-0.50		222.23E+00
			0.00		222.13E+00
			0.50		222.23E+00
			1.00		222.35E+00
			1.50		222.28E+00
			2.00		222.11E+00
			2.50		221.96E+00
			3.00		221.82E+00
			3.50		221.66E+00
			4.00		221.53E+00
			4.50		221.33E+00
			5.00		220.99E+00
			5.50		220.69E+00
			6.00		220.52E+00
			6.50		220.37E+00
			7.00		220.18E+00
			7.50		219.95E+00
			8.00		219.51E+00
			8.50		219.07E+00
			9.00		218.80E+00
			9.50		218.61E+00
			10.00		218.34E+00
			10.50		217.98E+00
			11.00		217.51E+00
			11.50		217.00E+00
			12.00		216.40E+00
			12.50		215.85E+00
			13.00		215.37E+00
			13.50		214.85E+00
			14.00		214.04E+00
			14.50		212.89E+00
			15.00		211.64E+00
			15.50		210.02E+00
			16.00		208.33E+00
			16.50		206.30E+00
			17.00		204.10E+00
			17.50		200.71E+00
			18.00		197.01E+00
			18.50		192.03E+00
			19.00		186.70E+00
			19.50		179.92E+00
			20.00		172.46E+00
			20.50		163.67E+00
			21.00		154.08E+00
			21.50		143.91E+00
			22.00		132.93E+00
			22.50		121.74E+00
			23.00		110.31E+00
			23.50		98.980E+00
			24.00		88.052E+00
			24.50		77.308E+00
			25.00		67.423E+00
			25.50		57.829E+00
			26.00		49.899E+00
			26.50		42.408E+00
			27.00		36.670E+00
			27.50		31.526E+00
			28.00		27.715E+00
			28.50		24.465E+00
			29.00		22.077E+00
			29.50		20.253E+00
			30.00		18.782E+00
			30.50		17.673E+00
			31.00		16.681E+00
			31.50		15.926E+00
			32.00		15.229E+00
			32.50		14.678E+00
			33.00		14.146E+00
			33.50		13.722E+00
			34.00		13.316E+00
			34.50		12.901E+00
			35.00		12.488E+00
			35.50		12.135E+00
			36.00		11.805E+00
			36.50		11.482E+00
			37.00		11.167E+00
			37.50		10.886E+00
			38.00		10.625E+00
			38.50		10.373E+00
			39.00		10.141E+00
			39.50		9.9128E+00
			40.00		9.7005E+00
			40.50		9.4878E+00
			41.00		9.2810E+00
			41.50		9.0808E+00
			42.00		8.9056E+00
			42.50		8.7307E+00
			43.00		8.5441E+00
			43.50		8.3571E+00
			44.00		8.2085E+00
			44.50		8.0634E+00
			45.00		7.8966E+00
			45.50		7.7361E+00
			46.00		7.5947E+00
			46.50		7.4460E+00
			47.00		7.2980E+00
			47.50		7.1628E+00
			48.00		7.0300E+00
			48.50		6.9180E+00
			49.00		6.8061E+00
			49.50		6.6831E+00
			50.00		6.5609E+00
			50.50		6.4479E+00
			51.00		6.3349E+00
			51.50		6.2204E+00
			52.00		6.1067E+00
			52.50		6.0043E+00
			53.00		5.9059E+00
		END_DATA
	END_SCAN  4
	BEGIN_SCAN  5
		TASK_NAME=tba PDD Profiles
		PROGRAM=WaterTankScans
		COMMENT=FBF_SanPietro
		MEAS_DATE=08-Feb-2021 09:38:10
		LINAC=MRIdian
		MODALITY=X
		ISOCENTER=900.00
		INPLANE_AXIS=Y
		CROSSPLANE_AXIS=X
		DEPTH_AXIS=Depth
		INPLANE_AXIS_DIR=TARGET_GUN
		CROSSPLANE_AXIS_DIR=LEFT_RIGHT
		DEPTH_AXIS_DIR=UP_DOWN
		ENERGY=6.00
		NOMINAL_DMAX=15.00
		SSD=850.00
		SCD=450.00
		WEDGE_ANGLE=0.00
		FIELD_INPLANE=41.50
		FIELD_CROSSPLANE=41.50
		FIELD_TYPE=RECTANGULAR
		GANTRY=0.00
		GANTRY_UPRIGHT_POSITION=0
		GANTRY_ROTATION=CW
		COLL_ANGLE=0.00
		COLL_OFFSET_INPLANE=0.00
		COLL_OFFSET_CROSSPLANE=0.00
		SCAN_DEVICE=BeamScan
		SCAN_DEVICE_SETUP=BARA_LEFT_RIGHT
		ELECTROMETER=BeamScan
		RANGE_FIELD=LOW
		RANGE_REFERENCE=MEDIUM
		DETECTOR=THIMBLE_CHAMBER
		DETECTOR_RADIUS=2.40
		DETECTOR_NAME=A28MR
		DETECTOR_SN=-
		DETECTOR_CALIBRATION=588000000.00
		DETECTOR_IS_CALIBRATED=0
		DETECTOR_REFERENCE=THIMBLE_CHAMBER
		DETECTOR_REFERENCE_RADIUS=2.75
		DETECTOR_REFERENCE_NAME=A28MR
		DETECTOR_REFERENCE_SN=—
		DETECTOR_REFERENCE_IS_CALIBRATED=0
		DETECTOR_REFERENCE_CALIBRATION=303000000.00
		DETECTOR_HV=300.0
		DETECTOR_REFERENCE_HV=300.0
		DETECTOR_ORIENTATION=HORIZONTAL
		FILTER=FFF
		SCAN_SPEED_PROFILE=10.00
		SCAN_PROF_SPEED_DEP=DEPTH
		SCAN_SPEED_PDD=0.00
		SCAN_PDD_SPEED_DEP=ENERGY
		DETECTOR_TYPE=A28MR
		REF_FIELD_DEPTH=220.00
		REF_FIELD_DEFINED=ISOCENTER
		REF_FIELD_INPLANE=100.00
		REF_FIELD_CROSSPLANE=100.00
		REF_SCAN_POSITIONS=-85.00;-84.00;-83.00;-82.00;-81.00;-80.00;-79.00;-78.00;-77.00;-76.00;-75.00;-74.00;-73.00;-72.00;-71.00;-70.00;-69.00;-68.00;-67.00;-66.00;-65.00;-64.00;-63.00;-62.00;-61.00;-60.00;-59.00;-58.00;-57.00;-56.00;-55.00;-54.00;-53.00;-52.00;-51.00;-50.00;-49.00;-48.00;-47.00;-46.00;-45.00;-44.00;-43.00;-42.00;-41.00;-40.00;-39.00;-38.00;-37.00;-36.00;-35.00;-34.00;-33.00;-32.00;-31.00;-30.00;-29.00;-28.00;-27.00;-26.00;-25.00;-24.00;-23.00;-22.00;-21.00;-20.00;-19.00;-18.00;-17.00;-16.00;-15.00;-14.00;-13.00;-12.00;-11.00;-10.00;-9.00;-8.00;-7.00;-6.00;-5.00;-4.00;-3.00;-2.00;-1.00;0.00;1.00;2.00;3.00;4.00;5.00;6.00;7.00;8.00;9.00;10.00;11.00;12.00;13.00;14.00;15.00;16.00;17.00;18.00;19.00;20.00;21.00;22.00;23.00;24.00;25.00;26.00;27.00;28.00;29.00;30.00;31.00;32.00;33.00;34.00;35.00;36.00;37.00;38.00;39.00;40.00;41.00;42.00;43.00;44.00;45.00;46.00;47.00;48.00;49.00;50.00;51.00;52.00;53.00;54.00;55.00;56.00;57.00;58.00;59.00;60.00;61.00;62.00;63.00;64.00;65.00;66.00;67.00;68.00;69.00;70.00;71.00;72.00;73.00;74.00;75.00;76.00;77.00;78.00;79.00;80.00;81.00;82.00;83.00;84.00;85.00;
		REF_OVERSCAN_FACTOR=1.00
		SCAN_CURVETYPE=CROSSPLANE_PROFILE
		SCAN_DEPTH=200.00
		SCAN_OFFAXIS_INPLANE=0.00
		SCAN_OFFAXIS_CROSSPLANE=0.00
		SCAN_ANGLE=0.00
		SCAN_DIAGONAL=NOT_DIAGONAL
		SCAN_DIRECTION=POSITIVE
		MEAS_MEDIUM=WATER
		MEAS_PRESET=MEAS_CONTINUOUS_REFERENCE_SCAN
		MEAS_TIME=0.100
		MEAS_UNIT=A.U.
		INCLINATION_ANGLE=0.00
		PRESSURE=1013.25
		TEMPERATURE=20.00
		NORM_TEMPERATURE=20.00
		CORRECTION_FACTOR=1.0000
		EXPECTED_MAX_DOSE_RATE=3.00
		EPOM_DEPTH_SHIFT=0.2
		EPOM_MODE=SHIFT_PROTOCOL
		CORRECTIONS=CAX_CORR;INTERPOLATED_CORR;SYMMETRY_CORR;
		BEGIN_DATA
			-53.00		5.3414E+00
			-52.50		5.4828E+00
			-52.00		5.5736E+00
			-51.50		5.6742E+00
			-51.00		5.7773E+00
			-50.50		5.8553E+00
			-50.00		5.9262E+00
			-49.50		6.0240E+00
			-49.00		6.1306E+00
			-48.50		6.2359E+00
			-48.00		6.3457E+00
			-47.50		6.4535E+00
			-47.00		6.5607E+00
			-46.50		6.6712E+00
			-46.00		6.7821E+00
			-45.50		6.8988E+00
			-45.00		7.0398E+00
			-44.50		7.1806E+00
			-44.00		7.3143E+00
			-43.50		7.4465E+00
			-43.00		7.5768E+00
			-42.50		7.7080E+00
			-42.00		7.8603E+00
			-41.50		8.0189E+00
			-41.00		8.1783E+00
			-40.50		8.3307E+00
			-40.00		8.5094E+00
			-39.50		8.7167E+00
			-39.00		8.9206E+00
			-38.50		9.1160E+00
			-38.00		9.3254E+00
			-37.50		9.5489E+00
			-37.00		9.7752E+00
			-36.50		10.015E+00
			-36.00		10.259E+00
			-35.50		10.536E+00
			-35.00		10.824E+00
			-34.50		11.166E+00
			-34.00		11.514E+00
			-33.50		11.938E+00
			-33.00		12.372E+00
			-32.50		12.925E+00
			-32.00		13.531E+00
			-31.50		14.299E+00
			-31.00		15.174E+00
			-30.50		16.392E+00
			-30.00		17.958E+00
			-29.50		19.855E+00
			-29.00		22.383E+00
			-28.50		25.292E+00
			-28.00		29.273E+00
			-27.50		33.528E+00
			-27.00		39.043E+00
			-26.50		44.768E+00
			-26.00		51.560E+00
			-25.50		58.488E+00
			-25.00		65.975E+00
			-24.50		73.538E+00
			-24.00		81.446E+00
			-23.50		89.451E+00
			-23.00		97.163E+00
			-22.50		104.67E+00
			-22.00		111.58E+00
			-21.50		117.99E+00
			-21.00		123.88E+00
			-20.50		129.05E+00
			-20.00		133.76E+00
			-19.50		137.45E+00
			-19.00		140.86E+00
			-18.50		143.21E+00
			-18.00		145.46E+00
			-17.50		147.24E+00
			-17.00		148.96E+00
			-16.50		150.08E+00
			-16.00		151.13E+00
			-15.50		151.95E+00
			-15.00		152.70E+00
			-14.50		153.33E+00
			-14.00		153.98E+00
			-13.50		154.46E+00
			-13.00		154.76E+00
			-12.50		155.06E+00
			-12.00		155.43E+00
			-11.50		155.79E+00
			-11.00		156.12E+00
			-10.50		156.42E+00
			-10.00		156.60E+00
			-9.50		156.80E+00
			-9.00		156.97E+00
			-8.50		157.14E+00
			-8.00		157.39E+00
			-7.50		157.67E+00
			-7.00		157.80E+00
			-6.50		157.85E+00
			-6.00		157.92E+00
			-5.50		157.99E+00
			-5.00		158.15E+00
			-4.50		158.38E+00
			-4.00		158.54E+00
			-3.50		158.64E+00
			-3.00		158.71E+00
			-2.50		158.70E+00
			-2.00		158.71E+00
			-1.50		158.88E+00
			-1.00		159.01E+00
			-0.50		158.86E+00
			0.00		158.72E+00
			0.50		158.86E+00
			1.00		159.01E+00
			1.50		158.88E+00
			2.00		158.71E+00
			2.50		158.70E+00
			3.00		158.71E+00
			3.50		158.64E+00
			4.00		158.54E+00
			4.50		158.38E+00
			5.00		158.15E+00
			5.50		157.99E+00
			6.00		157.92E+00
			6.50		157.85E+00
			7.00		157.80E+00
			7.50		157.67E+00
			8.00		157.39E+00
			8.50		157.14E+00
			9.00		156.97E+00
			9.50		156.80E+00
			10.00		156.60E+00
			10.50		156.42E+00
			11.00		156.12E+00
			11.50		155.79E+00
			12.00		155.43E+00
			12.50		155.06E+00
			13.00		154.76E+00
			13.50		154.46E+00
			14.00		153.98E+00
			14.50		153.33E+00
			15.00		152.70E+00
			15.50		151.95E+00
			16.00		151.13E+00
			16.50		150.08E+00
			17.00		148.96E+00
			17.50		147.24E+00
			18.00		145.46E+00
			18.50		143.21E+00
			19.00		140.86E+00
			19.50		137.45E+00
			20.00		133.76E+00
			20.50		129.05E+00
			21.00		123.88E+00
			21.50		117.99E+00
			22.00		111.58E+00
			22.50		104.67E+00
			23.00		97.163E+00
			23.50		89.451E+00
			24.00		81.446E+00
			24.50		73.538E+00
			25.00		65.975E+00
			25.50		58.488E+00
			26.00		51.560E+00
			26.50		44.768E+00
			27.00		39.043E+00
			27.50		33.528E+00
			28.00		29.273E+00
			28.50		25.292E+00
			29.00		22.383E+00
			29.50		19.855E+00
			30.00		17.958E+00
			30.50		16.392E+00
			31.00		15.174E+00
			31.50		14.299E+00
			32.00		13.531E+00
			32.50		12.925E+00
			33.00		12.372E+00
			33.50		11.938E+00
			34.00		11.514E+00
			34.50		11.166E+00
			35.00		10.824E+00
			35.50		10.536E+00
			36.00		10.259E+00
			36.50		10.015E+00
			37.00		9.7752E+00
			37.50		9.5489E+00
			38.00		9.3254E+00
			38.50		9.1160E+00
			39.00		8.9206E+00
			39.50		8.7167E+00
			40.00		8.5094E+00
			40.50		8.3307E+00
			41.00		8.1783E+00
			41.50		8.0189E+00
			42.00		7.8603E+00
			42.50		7.7080E+00
			43.00		7.5768E+00
			43.50		7.4465E+00
			44.00		7.3143E+00
			44.50		7.1806E+00
			45.00		7.0398E+00
			45.50		6.8988E+00
			46.00		6.7821E+00
			46.50		6.6712E+00
			47.00		6.5607E+00
			47.50		6.4535E+00
			48.00		6.3457E+00
			48.50		6.2359E+00
			49.00		6.1306E+00
			49.50		6.0240E+00
			50.00		5.9262E+00
			50.50		5.8553E+00
			51.00		5.7773E+00
			51.50		5.6742E+00
			52.00		5.5736E+00
			52.50		5.4828E+00
			53.00		5.3414E+00
		END_DATA
	END_SCAN  5
	BEGIN_SCAN  6
		TASK_NAME=tba PDD Profiles
		PROGRAM=WaterTankScans
		COMMENT=FBF_SanPietro
		MEAS_DATE=08-Feb-2021 09:38:10
		LINAC=MRIdian
		MODALITY=X
		ISOCENTER=900.00
		INPLANE_AXIS=Y
		CROSSPLANE_AXIS=X
		DEPTH_AXIS=Depth
		INPLANE_AXIS_DIR=TARGET_GUN
		CROSSPLANE_AXIS_DIR=LEFT_RIGHT
		DEPTH_AXIS_DIR=UP_DOWN
		ENERGY=6.00
		NOMINAL_DMAX=15.00
		SSD=850.00
		SCD=450.00
		WEDGE_ANGLE=0.00
		FIELD_INPLANE=41.50
		FIELD_CROSSPLANE=41.50
		FIELD_TYPE=RECTANGULAR
		GANTRY=0.00
		GANTRY_UPRIGHT_POSITION=0
		GANTRY_ROTATION=CW
		COLL_ANGLE=0.00
		COLL_OFFSET_INPLANE=0.00
		COLL_OFFSET_CROSSPLANE=0.00
		SCAN_DEVICE=BeamScan
		SCAN_DEVICE_SETUP=BARA_LEFT_RIGHT
		ELECTROMETER=BeamScan
		RANGE_FIELD=LOW
		RANGE_REFERENCE=MEDIUM
		DETECTOR=THIMBLE_CHAMBER
		DETECTOR_RADIUS=2.40
		DETECTOR_NAME=A28MR
		DETECTOR_SN=-
		DETECTOR_CALIBRATION=588000000.00
		DETECTOR_IS_CALIBRATED=0
		DETECTOR_REFERENCE=THIMBLE_CHAMBER
		DETECTOR_REFERENCE_RADIUS=2.75
		DETECTOR_REFERENCE_NAME=A28MR
		DETECTOR_REFERENCE_SN=—
		DETECTOR_REFERENCE_IS_CALIBRATED=0
		DETECTOR_REFERENCE_CALIBRATION=303000000.00
		DETECTOR_HV=300.0
		DETECTOR_REFERENCE_HV=300.0
		DETECTOR_ORIENTATION=HORIZONTAL
		FILTER=FFF
		SCAN_SPEED_PROFILE=10.00
		SCAN_PROF_SPEED_DEP=DEPTH
		SCAN_SPEED_PDD=0.00
		SCAN_PDD_SPEED_DEP=ENERGY
		DETECTOR_TYPE=A28MR
		REF_FIELD_DEPTH=220.00
		REF_FIELD_DEFINED=ISOCENTER
		REF_FIELD_INPLANE=100.00
		REF_FIELD_CROSSPLANE=100.00
		REF_SCAN_POSITIONS=-85.00;-84.00;-83.00;-82.00;-81.00;-80.00;-79.00;-78.00;-77.00;-76.00;-75.00;-74.00;-73.00;-72.00;-71.00;-70.00;-69.00;-68.00;-67.00;-66.00;-65.00;-64.00;-63.00;-62.00;-61.00;-60.00;-59.00;-58.00;-57.00;-56.00;-55.00;-54.00;-53.00;-52.00;-51.00;-50.00;-49.00;-48.00;-47.00;-46.00;-45.00;-44.00;-43.00;-42.00;-41.00;-40.00;-39.00;-38.00;-37.00;-36.00;-35.00;-34.00;-33.00;-32.00;-31.00;-30.00;-29.00;-28.00;-27.00;-26.00;-25.00;-24.00;-23.00;-22.00;-21.00;-20.00;-19.00;-18.00;-17.00;-16.00;-15.00;-14.00;-13.00;-12.00;-11.00;-10.00;-9.00;-8.00;-7.00;-6.00;-5.00;-4.00;-3.00;-2.00;-1.00;0.00;1.00;2.00;3.00;4.00;5.00;6.00;7.00;8.00;9.00;10.00;11.00;12.00;13.00;14.00;15.00;16.00;17.00;18.00;19.00;20.00;21.00;22.00;23.00;24.00;25.00;26.00;27.00;28.00;29.00;30.00;31.00;32.00;33.00;34.00;35.00;36.00;37.00;38.00;39.00;40.00;41.00;42.00;43.00;44.00;45.00;46.00;47.00;48.00;49.00;50.00;51.00;52.00;53.00;54.00;55.00;56.00;57.00;58.00;59.00;60.00;61.00;62.00;63.00;64.00;65.00;66.00;67.00;68.00;69.00;70.00;71.00;72.00;73.00;74.00;75.00;76.00;77.00;78.00;79.00;80.00;81.00;82.00;83.00;84.00;85.00;
		REF_OVERSCAN_FACTOR=1.00
		SCAN_CURVETYPE=CROSSPLANE_PROFILE
		SCAN_DEPTH=250.00
		SCAN_OFFAXIS_INPLANE=0.00
		SCAN_OFFAXIS_CROSSPLANE=0.00
		SCAN_ANGLE=0.00
		SCAN_DIAGONAL=NOT_DIAGONAL
		SCAN_DIRECTION=POSITIVE
		MEAS_MEDIUM=WATER
		MEAS_PRESET=MEAS_CONTINUOUS_REFERENCE_SCAN
		MEAS_TIME=0.100
		MEAS_UNIT=A.U.
		INCLINATION_ANGLE=0.00
		PRESSURE=1013.25
		TEMPERATURE=20.00
		NORM_TEMPERATURE=20.00
		CORRECTION_FACTOR=1.0000
		EXPECTED_MAX_DOSE_RATE=3.00
		EPOM_DEPTH_SHIFT=0.2
		EPOM_MODE=SHIFT_PROTOCOL
		CORRECTIONS=CAX_CORR;INTERPOLATED_CORR;SYMMETRY_CORR;
		BEGIN_DATA
			-52.50		4.7147E+00
			-52.00		4.7874E+00
			-51.50		4.8529E+00
			-51.00		4.9129E+00
			-50.50		4.9881E+00
			-50.00		5.0767E+00
			-49.50		5.1589E+00
			-49.00		5.2329E+00
			-48.50		5.3135E+00
			-48.00		5.4042E+00
			-47.50		5.4936E+00
			-47.00		5.5870E+00
			-46.50		5.6817E+00
			-46.00		5.7758E+00
			-45.50		5.8699E+00
			-45.00		5.9718E+00
			-44.50		6.0738E+00
			-44.00		6.1810E+00
			-43.50		6.2915E+00
			-43.00		6.4079E+00
			-42.50		6.5257E+00
			-42.00		6.6512E+00
			-41.50		6.7816E+00
			-41.00		6.9100E+00
			-40.50		7.0426E+00
			-40.00		7.1824E+00
			-39.50		7.3318E+00
			-39.00		7.4861E+00
			-38.50		7.6541E+00
			-38.00		7.8232E+00
			-37.50		8.0101E+00
			-37.00		8.1989E+00
			-36.50		8.4143E+00
			-36.00		8.6297E+00
			-35.50		8.8939E+00
			-35.00		9.1632E+00
			-34.50		9.4871E+00
			-34.00		9.8249E+00
			-33.50		10.261E+00
			-33.00		10.741E+00
			-32.50		11.396E+00
			-32.00		12.177E+00
			-31.50		13.162E+00
			-31.00		14.390E+00
			-30.50		15.901E+00
			-30.00		17.938E+00
			-29.50		20.194E+00
			-29.00		23.184E+00
			-28.50		26.290E+00
			-28.00		30.461E+00
			-27.50		34.655E+00
			-27.00		39.500E+00
			-26.50		44.366E+00
			-26.00		49.769E+00
			-25.50		55.243E+00
			-25.00		60.771E+00
			-24.50		66.312E+00
			-24.00		71.571E+00
			-23.50		76.678E+00
			-23.00		81.479E+00
			-22.50		86.010E+00
			-22.00		90.124E+00
			-21.50		93.703E+00
			-21.00		96.914E+00
			-20.50		99.318E+00
			-20.00		101.60E+00
			-19.50		103.32E+00
			-19.00		104.99E+00
			-18.50		106.19E+00
			-18.00		107.39E+00
			-17.50		108.20E+00
			-17.00		108.99E+00
			-16.50		109.60E+00
			-16.00		110.18E+00
			-15.50		110.65E+00
			-15.00		111.07E+00
			-14.50		111.43E+00
			-14.00		111.77E+00
			-13.50		112.06E+00
			-13.00		112.31E+00
			-12.50		112.57E+00
			-12.00		112.85E+00
			-11.50		113.07E+00
			-11.00		113.16E+00
			-10.50		113.25E+00
			-10.00		113.34E+00
			-9.50		113.44E+00
			-9.00		113.68E+00
			-8.50		113.92E+00
			-8.00		113.98E+00
			-7.50		114.04E+00
			-7.00		114.19E+00
			-6.50		114.36E+00
			-6.00		114.49E+00
			-5.50		114.60E+00
			-5.00		114.61E+00
			-4.50		114.57E+00
			-4.00		114.63E+00
			-3.50		114.85E+00
			-3.00		115.01E+00
			-2.50		115.10E+00
			-2.00		115.13E+00
			-1.50		115.09E+00
			-1.00		115.06E+00
			-0.50		115.04E+00
			0.00		115.02E+00
			0.50		115.04E+00
			1.00		115.06E+00
			1.50		115.09E+00
			2.00		115.13E+00
			2.50		115.10E+00
			3.00		115.01E+00
			3.50		114.85E+00
			4.00		114.63E+00
			4.50		114.57E+00
			5.00		114.61E+00
			5.50		114.60E+00
			6.00		114.49E+00
			6.50		114.36E+00
			7.00		114.19E+00
			7.50		114.04E+00
			8.00		113.98E+00
			8.50		113.92E+00
			9.00		113.68E+00
			9.50		113.44E+00
			10.00		113.34E+00
			10.50		113.25E+00
			11.00		113.16E+00
			11.50		113.07E+00
			12.00		112.85E+00
			12.50		112.57E+00
			13.00		112.31E+00
			13.50		112.06E+00
			14.00		111.77E+00
			14.50		111.43E+00
			15.00		111.07E+00
			15.50		110.65E+00
			16.00		110.18E+00
			16.50		109.60E+00
			17.00		108.99E+00
			17.50		108.20E+00
			18.00		107.39E+00
			18.50		106.19E+00
			19.00		104.99E+00
			19.50		103.32E+00
			20.00		101.60E+00
			20.50		99.318E+00
			21.00		96.914E+00
			21.50		93.703E+00
			22.00		90.124E+00
			22.50		86.010E+00
			23.00		81.479E+00
			23.50		76.678E+00
			24.00		71.571E+00
			24.50		66.312E+00
			25.00		60.771E+00
			25.50		55.243E+00
			26.00		49.769E+00
			26.50		44.366E+00
			27.00		39.500E+00
			27.50		34.655E+00
			28.00		30.461E+00
			28.50		26.290E+00
			29.00		23.184E+00
			29.50		20.194E+00
			30.00		17.938E+00
			30.50		15.901E+00
			31.00		14.390E+00
			31.50		13.162E+00
			32.00		12.177E+00
			32.50		11.396E+00
			33.00		10.741E+00
			33.50		10.261E+00
			34.00		9.8249E+00
			34.50		9.4871E+00
			35.00		9.1632E+00
			35.50		8.8939E+00
			36.00		8.6297E+00
			36.50		8.4143E+00
			37.00		8.1989E+00
			37.50		8.0101E+00
			38.00		7.8232E+00
			38.50		7.6541E+00
			39.00		7.4861E+00
			39.50		7.3318E+00
			40.00		7.1824E+00
			40.50		7.0426E+00
			41.00		6.9100E+00
			41.50		6.7816E+00
			42.00		6.6512E+00
			42.50		6.5257E+00
			43.00		6.4079E+00
			43.50		6.2915E+00
			44.00		6.1810E+00
			44.50		6.0738E+00
			45.00		5.9718E+00
			45.50		5.8699E+00
			46.00		5.7758E+00
			46.50		5.6817E+00
			47.00		5.5870E+00
			47.50		5.4936E+00
			48.00		5.4042E+00
			48.50		5.3135E+00
			49.00		5.2329E+00
			49.50		5.1589E+00
			50.00		5.0767E+00
			50.50		4.9881E+00
			51.00		4.9129E+00
			51.50		4.8529E+00
			52.00		4.7874E+00
			52.50		4.7147E+00
		END_DATA
	END_SCAN  6
	BEGIN_SCAN  7
		TASK_NAME=tba PDD Profiles
		PROGRAM=WaterTankScans
		COMMENT=FBF_SanPietro
		MEAS_DATE=08-Feb-2021 09:38:10
		LINAC=MRIdian
		MODALITY=X
		ISOCENTER=900.00
		INPLANE_AXIS=Y
		CROSSPLANE_AXIS=X
		DEPTH_AXIS=Depth
		INPLANE_AXIS_DIR=TARGET_GUN
		CROSSPLANE_AXIS_DIR=LEFT_RIGHT
		DEPTH_AXIS_DIR=UP_DOWN
		ENERGY=6.00
		NOMINAL_DMAX=15.00
		SSD=850.00
		SCD=450.00
		WEDGE_ANGLE=0.00
		FIELD_INPLANE=41.50
		FIELD_CROSSPLANE=41.50
		FIELD_TYPE=RECTANGULAR
		GANTRY=0.00
		GANTRY_UPRIGHT_POSITION=0
		GANTRY_ROTATION=CW
		COLL_ANGLE=0.00
		COLL_OFFSET_INPLANE=0.00
		COLL_OFFSET_CROSSPLANE=0.00
		SCAN_DEVICE=BeamScan
		SCAN_DEVICE_SETUP=BARA_LEFT_RIGHT
		ELECTROMETER=BeamScan
		RANGE_FIELD=LOW
		RANGE_REFERENCE=MEDIUM
		DETECTOR=THIMBLE_CHAMBER
		DETECTOR_RADIUS=2.40
		DETECTOR_NAME=A28MR
		DETECTOR_SN=-
		DETECTOR_CALIBRATION=588000000.00
		DETECTOR_IS_CALIBRATED=0
		DETECTOR_REFERENCE=THIMBLE_CHAMBER
		DETECTOR_REFERENCE_RADIUS=2.75
		DETECTOR_REFERENCE_NAME=A28MR
		DETECTOR_REFERENCE_SN=—
		DETECTOR_REFERENCE_IS_CALIBRATED=0
		DETECTOR_REFERENCE_CALIBRATION=303000000.00
		DETECTOR_HV=300.0
		DETECTOR_REFERENCE_HV=300.0
		DETECTOR_ORIENTATION=HORIZONTAL
		FILTER=FFF
		SCAN_SPEED_PROFILE=10.00
		SCAN_PROF_SPEED_DEP=DEPTH
		SCAN_SPEED_PDD=0.00
		SCAN_PDD_SPEED_DEP=ENERGY
		DETECTOR_TYPE=A28MR
		REF_FIELD_DEPTH=220.00
		REF_FIELD_DEFINED=ISOCENTER
		REF_FIELD_INPLANE=100.00
		REF_FIELD_CROSSPLANE=100.00
		REF_SCAN_POSITIONS=-85.00;-84.00;-83.00;-82.00;-81.00;-80.00;-79.00;-78.00;-77.00;-76.00;-75.00;-74.00;-73.00;-72.00;-71.00;-70.00;-69.00;-68.00;-67.00;-66.00;-65.00;-64.00;-63.00;-62.00;-61.00;-60.00;-59.00;-58.00;-57.00;-56.00;-55.00;-54.00;-53.00;-52.00;-51.00;-50.00;-49.00;-48.00;-47.00;-46.00;-45.00;-44.00;-43.00;-42.00;-41.00;-40.00;-39.00;-38.00;-37.00;-36.00;-35.00;-34.00;-33.00;-32.00;-31.00;-30.00;-29.00;-28.00;-27.00;-26.00;-25.00;-24.00;-23.00;-22.00;-21.00;-20.00;-19.00;-18.00;-17.00;-16.00;-15.00;-14.00;-13.00;-12.00;-11.00;-10.00;-9.00;-8.00;-7.00;-6.00;-5.00;-4.00;-3.00;-2.00;-1.00;0.00;1.00;2.00;3.00;4.00;5.00;6.00;7.00;8.00;9.00;10.00;11.00;12.00;13.00;14.00;15.00;16.00;17.00;18.00;19.00;20.00;21.00;22.00;23.00;24.00;25.00;26.00;27.00;28.00;29.00;30.00;31.00;32.00;33.00;34.00;35.00;36.00;37.00;38.00;39.00;40.00;41.00;42.00;43.00;44.00;45.00;46.00;47.00;48.00;49.00;50.00;51.00;52.00;53.00;54.00;55.00;56.00;57.00;58.00;59.00;60.00;61.00;62.00;63.00;64.00;65.00;66.00;67.00;68.00;69.00;70.00;71.00;72.00;73.00;74.00;75.00;76.00;77.00;78.00;79.00;80.00;81.00;82.00;83.00;84.00;85.00;
		REF_OVERSCAN_FACTOR=1.00
		SCAN_CURVETYPE=CROSSPLANE_PROFILE
		SCAN_DEPTH=285.00
		SCAN_OFFAXIS_INPLANE=0.00
		SCAN_OFFAXIS_CROSSPLANE=0.00
		SCAN_ANGLE=0.00
		SCAN_DIAGONAL=NOT_DIAGONAL
		SCAN_DIRECTION=POSITIVE
		MEAS_MEDIUM=WATER
		MEAS_PRESET=MEAS_CONTINUOUS_REFERENCE_SCAN
		MEAS_TIME=0.100
		MEAS_UNIT=A.U.
		INCLINATION_ANGLE=0.00
		PRESSURE=1013.25
		TEMPERATURE=20.00
		NORM_TEMPERATURE=20.00
		CORRECTION_FACTOR=1.0000
		EXPECTED_MAX_DOSE_RATE=3.00
		EPOM_DEPTH_SHIFT=0.2
		EPOM_MODE=SHIFT_PROTOCOL
		CORRECTIONS=MODIFIED_CORR;CAX_CORR;INTERPOLATED_CORR;SYMMETRY_CORR;
		BEGIN_DATA
			-53.00		4.1151E+00
			-52.50		4.1627E+00
			-52.00		4.2293E+00
			-51.50		4.2757E+00
			-51.00		4.3419E+00
			-50.50		4.4082E+00
			-50.00		4.4536E+00
			-49.50		4.5129E+00
			-49.00		4.5977E+00
			-48.50		4.6868E+00
			-48.00		4.7741E+00
			-47.50		4.8516E+00
			-47.00		4.9181E+00
			-46.50		4.9928E+00
			-46.00		5.0708E+00
			-45.50		5.1371E+00
			-45.00		5.2126E+00
			-44.50		5.3006E+00
			-44.00		5.3929E+00
			-43.50		5.5057E+00
			-43.00		5.6354E+00
			-42.50		5.7443E+00
			-42.00		5.8351E+00
			-41.50		5.9247E+00
			-41.00		6.0137E+00
			-40.50		6.1218E+00
			-40.00		6.2474E+00
			-39.50		6.3980E+00
			-39.00		6.5532E+00
			-38.50		6.6939E+00
			-38.00		6.8371E+00
			-37.50		7.0161E+00
			-37.00		7.2073E+00
			-36.50		7.3948E+00
			-36.00		7.6036E+00
			-35.50		7.8450E+00
			-35.00		8.0984E+00
			-34.50		8.4347E+00
			-34.00		8.8510E+00
			-33.50		9.3498E+00
			-33.00		9.9304E+00
			-32.50		10.682E+00
			-32.00		11.585E+00
			-31.50		12.688E+00
			-31.00		14.141E+00
			-30.50		15.896E+00
			-30.00		18.069E+00
			-29.50		20.560E+00
			-29.00		23.512E+00
			-28.50		26.750E+00
			-28.00		30.404E+00
			-27.50		34.347E+00
			-27.00		38.522E+00
			-26.50		42.797E+00
			-26.00		47.173E+00
			-25.50		51.563E+00
			-25.00		55.822E+00
			-24.50		59.933E+00
			-24.00		63.892E+00
			-23.50		67.730E+00
			-23.00		71.126E+00
			-22.50		74.072E+00
			-22.00		76.813E+00
			-21.50		79.074E+00
			-21.00		81.060E+00
			-20.50		82.708E+00
			-20.00		84.115E+00
			-19.50		85.236E+00
			-19.00		86.271E+00
			-18.50		87.189E+00
			-18.00		87.963E+00
			-17.50		88.546E+00
			-17.00		89.056E+00
			-16.50		89.467E+00
			-16.00		89.822E+00
			-15.50		90.132E+00
			-15.00		90.354E+00
			-14.50		90.522E+00
			-14.00		90.812E+00
			-13.50		91.120E+00
			-13.00		91.320E+00
			-12.50		91.465E+00
			-12.00		91.578E+00
			-11.50		91.656E+00
			-11.00		91.724E+00
			-10.50		91.868E+00
			-10.00		92.080E+00
			-9.50		92.239E+00
			-9.00		92.339E+00
			-8.50		92.445E+00
			-8.00		92.494E+00
			-7.50		92.514E+00
			-7.00		92.630E+00
			-6.50		92.800E+00
			-6.00		92.857E+00
			-5.50		92.816E+00
			-5.00		92.825E+00
			-4.50		92.936E+00
			-4.00		93.027E+00
			-3.50		93.094E+00
			-3.00		93.160E+00
			-2.50		93.130E+00
			-2.00		93.085E+00
			-1.50		93.143E+00
			-1.00		93.257E+00
			-0.50		93.375E+00
			0.00		93.434E+00
			0.50		93.375E+00
			1.00		93.257E+00
			1.50		93.143E+00
			2.00		93.085E+00
			2.50		93.130E+00
			3.00		93.160E+00
			3.50		93.094E+00
			4.00		93.027E+00
			4.50		92.936E+00
			5.00		92.825E+00
			5.50		92.816E+00
			6.00		92.857E+00
			6.50		92.800E+00
			7.00		92.630E+00
			7.50		92.514E+00
			8.00		92.494E+00
			8.50		92.445E+00
			9.00		92.339E+00
			9.50		92.239E+00
			10.00		92.080E+00
			10.50		91.868E+00
			11.00		91.724E+00
			11.50		91.656E+00
			12.00		91.578E+00
			12.50		91.465E+00
			13.00		91.320E+00
			13.50		91.120E+00
			14.00		90.812E+00
			14.50		90.522E+00
			15.00		90.354E+00
			15.50		90.132E+00
			16.00		89.822E+00
			16.50		89.467E+00
			17.00		89.056E+00
			17.50		88.546E+00
			18.00		87.963E+00
			18.50		87.189E+00
			19.00		86.271E+00
			19.50		85.236E+00
			20.00		84.115E+00
			20.50		82.708E+00
			21.00		81.060E+00
			21.50		79.074E+00
			22.00		76.813E+00
			22.50		74.072E+00
			23.00		71.126E+00
			23.50		67.730E+00
			24.00		63.892E+00
			24.50		59.933E+00
			25.00		55.822E+00
			25.50		51.563E+00
			26.00		47.173E+00
			26.50		42.797E+00
			27.00		38.522E+00
			27.50		34.347E+00
			28.00		30.404E+00
			28.50		26.750E+00
			29.00		23.512E+00
			29.50		20.560E+00
			30.00		18.069E+00
			30.50		15.896E+00
			31.00		14.141E+00
			31.50		12.688E+00
			32.00		11.585E+00
			32.50		10.682E+00
			33.00		9.9304E+00
			33.50		9.3498E+00
			34.00		8.8510E+00
			34.50		8.4347E+00
			35.00		8.0984E+00
			35.50		7.8450E+00
			36.00		7.6036E+00
			36.50		7.3948E+00
			37.00		7.2073E+00
			37.50		7.0161E+00
			38.00		6.8371E+00
			38.50		6.6939E+00
			39.00		6.5532E+00
			39.50		6.3980E+00
			40.00		6.2474E+00
			40.50		6.1218E+00
			41.00		6.0137E+00
			41.50		5.9247E+00
			42.00		5.8351E+00
			42.50		5.7443E+00
			43.00		5.6354E+00
			43.50		5.5057E+00
			44.00		5.3929E+00
			44.50		5.3006E+00
			45.00		5.2126E+00
			45.50		5.1371E+00
			46.00		5.0708E+00
			46.50		4.9928E+00
			47.00		4.9181E+00
			47.50		4.8516E+00
			48.00		4.7741E+00
			48.50		4.6868E+00
			49.00		4.5977E+00
			49.50		4.5129E+00
			50.00		4.4536E+00
			50.50		4.4082E+00
			51.00		4.3419E+00
			51.50		4.2757E+00
			52.00		4.2293E+00
			52.50		4.1627E+00
			53.00		4.1151E+00
		END_DATA
	END_SCAN  7
END_SCAN_DATA
