BEGIN_SCAN_DATA
	FORMAT=CC-Export V1.9                  
	FILE_CREATION_DATE=10-Mar-2022 18:49:29
	LAST_MODIFIED=10-Mar-2022 18:49:29
	BEGIN_SCAN  1
		TASK_NAME=tba PDD Profiles
		PROGRAM=WaterTankScans
		COMMENT=Mater Olbia-corrected for Ref
		MEAS_DATE=08-Feb-2021 09:38:10
		LINAC=MRIdian
		MODALITY=X
		ISOCENTER=900.00
		INPLANE_AXIS=Y
		CROSSPLANE_AXIS=X
		DEPTH_AXIS=Depth
		INPLANE_AXIS_DIR=TARGET_GUN
		CROSSPLANE_AXIS_DIR=LEFT_RIGHT
		DEPTH_AXIS_DIR=UP_DOWN
		ENERGY=6.00
		NOMINAL_DMAX=15.00
		SSD=850.00
		SCD=450.00
		WEDGE_ANGLE=0.00
		FIELD_INPLANE=66.40
		FIELD_CROSSPLANE=66.40
		FIELD_TYPE=RECTANGULAR
		GANTRY=0.00
		GANTRY_UPRIGHT_POSITION=0
		GANTRY_ROTATION=CW
		COLL_ANGLE=0.00
		COLL_OFFSET_INPLANE=0.00
		COLL_OFFSET_CROSSPLANE=0.00
		SCAN_DEVICE=BeamScan
		SCAN_DEVICE_SETUP=BARA_LEFT_RIGHT
		ELECTROMETER=BeamScan
		RANGE_FIELD=LOW
		RANGE_REFERENCE=MEDIUM
		DETECTOR=THIMBLE_CHAMBER
		DETECTOR_RADIUS=2.40
		DETECTOR_NAME=A28MR
		DETECTOR_SN=-
		DETECTOR_CALIBRATION=588000000.00
		DETECTOR_IS_CALIBRATED=0
		DETECTOR_REFERENCE=THIMBLE_CHAMBER
		DETECTOR_REFERENCE_RADIUS=2.75
		DETECTOR_REFERENCE_NAME=A28MR
		DETECTOR_REFERENCE_SN=â€”
		DETECTOR_REFERENCE_IS_CALIBRATED=0
		DETECTOR_REFERENCE_CALIBRATION=303000000.00
		DETECTOR_HV=300.0
		DETECTOR_REFERENCE_HV=300.0
		DETECTOR_ORIENTATION=HORIZONTAL
		FILTER=FFF
		SCAN_SPEED_PROFILE=10.00
		SCAN_PROF_SPEED_DEP=DEPTH
		SCAN_SPEED_PDD=0.00
		SCAN_PDD_SPEED_DEP=ENERGY
		DETECTOR_TYPE=A28MR
		REF_FIELD_DEPTH=220.00
		REF_FIELD_DEFINED=ISOCENTER
		REF_FIELD_INPLANE=100.00
		REF_FIELD_CROSSPLANE=100.00
		REF_SCAN_POSITIONS=-85.00;-84.00;-83.00;-82.00;-81.00;-80.00;-79.00;-78.00;-77.00;-76.00;-75.00;-74.00;-73.00;-72.00;-71.00;-70.00;-69.00;-68.00;-67.00;-66.00;-65.00;-64.00;-63.00;-62.00;-61.00;-60.00;-59.00;-58.00;-57.00;-56.00;-55.00;-54.00;-53.00;-52.00;-51.00;-50.00;-49.00;-48.00;-47.00;-46.00;-45.00;-44.00;-43.00;-42.00;-41.00;-40.00;-39.00;-38.00;-37.00;-36.00;-35.00;-34.00;-33.00;-32.00;-31.00;-30.00;-29.00;-28.00;-27.00;-26.00;-25.00;-24.00;-23.00;-22.00;-21.00;-20.00;-19.00;-18.00;-17.00;-16.00;-15.00;-14.00;-13.00;-12.00;-11.00;-10.00;-9.00;-8.00;-7.00;-6.00;-5.00;-4.00;-3.00;-2.00;-1.00;0.00;1.00;2.00;3.00;4.00;5.00;6.00;7.00;8.00;9.00;10.00;11.00;12.00;13.00;14.00;15.00;16.00;17.00;18.00;19.00;20.00;21.00;22.00;23.00;24.00;25.00;26.00;27.00;28.00;29.00;30.00;31.00;32.00;33.00;34.00;35.00;36.00;37.00;38.00;39.00;40.00;41.00;42.00;43.00;44.00;45.00;46.00;47.00;48.00;49.00;50.00;51.00;52.00;53.00;54.00;55.00;56.00;57.00;58.00;59.00;60.00;61.00;62.00;63.00;64.00;65.00;66.00;67.00;68.00;69.00;70.00;71.00;72.00;73.00;74.00;75.00;76.00;77.00;78.00;79.00;80.00;81.00;82.00;83.00;84.00;85.00;
		REF_OVERSCAN_FACTOR=1.00
		SCAN_CURVETYPE=CROSSPLANE_PROFILE
		SCAN_DEPTH=20.00
		SCAN_OFFAXIS_INPLANE=0.00
		SCAN_OFFAXIS_CROSSPLANE=0.00
		SCAN_ANGLE=0.00
		SCAN_DIAGONAL=NOT_DIAGONAL
		SCAN_DIRECTION=POSITIVE
		MEAS_MEDIUM=WATER
		MEAS_PRESET=MEAS_CONTINUOUS_REFERENCE_SCAN
		MEAS_TIME=0.100
		MEAS_UNIT=A.U.
		INCLINATION_ANGLE=0.00
		PRESSURE=1013.25
		TEMPERATURE=20.00
		NORM_TEMPERATURE=20.00
		CORRECTION_FACTOR=1.0000
		EXPECTED_MAX_DOSE_RATE=3.00
		EPOM_DEPTH_SHIFT=0.2
		EPOM_MODE=SHIFT_PROTOCOL
		CORRECTIONS=CAX_CORR;SYMMETRY_CORR;INTERPOLATED_CORR;
		BEGIN_DATA
			-60.00		5.5327E+00
			-59.50		5.6604E+00
			-59.00		5.7408E+00
			-58.50		5.8619E+00
			-58.00		5.9928E+00
			-57.50		6.0910E+00
			-57.00		6.1903E+00
			-56.50		6.3148E+00
			-56.00		6.4233E+00
			-55.50		6.5427E+00
			-55.00		6.6961E+00
			-54.50		6.8514E+00
			-54.00		6.9867E+00
			-53.50		7.1321E+00
			-53.00		7.2954E+00
			-52.50		7.4508E+00
			-52.00		7.6026E+00
			-51.50		7.7958E+00
			-51.00		7.9971E+00
			-50.50		8.1679E+00
			-50.00		8.3440E+00
			-49.50		8.5877E+00
			-49.00		8.8512E+00
			-48.50		9.0975E+00
			-48.00		9.3358E+00
			-47.50		9.6218E+00
			-47.00		9.9448E+00
			-46.50		10.322E+00
			-46.00		10.693E+00
			-45.50		11.047E+00
			-45.00		11.437E+00
			-44.50		11.894E+00
			-44.00		12.356E+00
			-43.50		12.913E+00
			-43.00		13.537E+00
			-42.50		14.214E+00
			-42.00		14.917E+00
			-41.50		15.776E+00
			-41.00		16.707E+00
			-40.50		17.802E+00
			-40.00		19.030E+00
			-39.50		20.673E+00
			-39.00		22.496E+00
			-38.50		25.004E+00
			-38.00		27.978E+00
			-37.50		32.369E+00
			-37.00		37.523E+00
			-36.50		45.154E+00
			-36.00		54.163E+00
			-35.50		66.648E+00
			-35.00		80.813E+00
			-34.50		98.223E+00
			-34.00		117.03E+00
			-33.50		138.65E+00
			-33.00		161.27E+00
			-32.50		185.41E+00
			-32.00		209.74E+00
			-31.50		233.89E+00
			-31.00		257.84E+00
			-30.50		280.54E+00
			-30.00		302.26E+00
			-29.50		320.94E+00
			-29.00		338.19E+00
			-28.50		351.61E+00
			-28.00		363.29E+00
			-27.50		372.19E+00
			-27.00		380.03E+00
			-26.50		385.47E+00
			-26.00		390.36E+00
			-25.50		394.52E+00
			-25.00		398.26E+00
			-24.50		401.10E+00
			-24.00		403.72E+00
			-23.50		405.60E+00
			-23.00		407.14E+00
			-22.50		408.57E+00
			-22.00		410.00E+00
			-21.50		411.07E+00
			-21.00		412.16E+00
			-20.50		413.72E+00
			-20.00		415.17E+00
			-19.50		416.17E+00
			-19.00		417.19E+00
			-18.50		418.08E+00
			-18.00		418.81E+00
			-17.50		419.35E+00
			-17.00		419.90E+00
			-16.50		420.68E+00
			-16.00		421.36E+00
			-15.50		421.87E+00
			-15.00		422.50E+00
			-14.50		423.13E+00
			-14.00		423.66E+00
			-13.50		424.32E+00
			-13.00		425.06E+00
			-12.50		425.35E+00
			-12.00		425.34E+00
			-11.50		425.62E+00
			-11.00		426.28E+00
			-10.50		426.98E+00
			-10.00		427.48E+00
			-9.50		427.85E+00
			-9.00		428.25E+00
			-8.50		428.54E+00
			-8.00		428.89E+00
			-7.50		429.53E+00
			-7.00		430.08E+00
			-6.50		430.16E+00
			-6.00		430.29E+00
			-5.50		430.67E+00
			-5.00		430.99E+00
			-4.50		431.23E+00
			-4.00		431.51E+00
			-3.50		431.51E+00
			-3.00		431.35E+00
			-2.50		431.60E+00
			-2.00		432.05E+00
			-1.50		431.94E+00
			-1.00		431.68E+00
			-0.50		431.71E+00
			0.00		431.75E+00
			0.50		431.71E+00
			1.00		431.68E+00
			1.50		431.94E+00
			2.00		432.05E+00
			2.50		431.60E+00
			3.00		431.35E+00
			3.50		431.51E+00
			4.00		431.51E+00
			4.50		431.23E+00
			5.00		430.99E+00
			5.50		430.67E+00
			6.00		430.29E+00
			6.50		430.16E+00
			7.00		430.08E+00
			7.50		429.53E+00
			8.00		428.89E+00
			8.50		428.54E+00
			9.00		428.25E+00
			9.50		427.85E+00
			10.00		427.48E+00
			10.50		426.98E+00
			11.00		426.28E+00
			11.50		425.62E+00
			12.00		425.34E+00
			12.50		425.35E+00
			13.00		425.06E+00
			13.50		424.32E+00
			14.00		423.66E+00
			14.50		423.13E+00
			15.00		422.50E+00
			15.50		421.87E+00
			16.00		421.36E+00
			16.50		420.68E+00
			17.00		419.90E+00
			17.50		419.35E+00
			18.00		418.81E+00
			18.50		418.08E+00
			19.00		417.19E+00
			19.50		416.17E+00
			20.00		415.17E+00
			20.50		413.72E+00
			21.00		412.16E+00
			21.50		411.07E+00
			22.00		410.00E+00
			22.50		408.57E+00
			23.00		407.14E+00
			23.50		405.60E+00
			24.00		403.72E+00
			24.50		401.10E+00
			25.00		398.26E+00
			25.50		394.52E+00
			26.00		390.36E+00
			26.50		385.47E+00
			27.00		380.03E+00
			27.50		372.19E+00
			28.00		363.29E+00
			28.50		351.61E+00
			29.00		338.19E+00
			29.50		320.94E+00
			30.00		302.26E+00
			30.50		280.54E+00
			31.00		257.84E+00
			31.50		233.89E+00
			32.00		209.74E+00
			32.50		185.41E+00
			33.00		161.27E+00
			33.50		138.65E+00
			34.00		117.03E+00
			34.50		98.223E+00
			35.00		80.813E+00
			35.50		66.648E+00
			36.00		54.163E+00
			36.50		45.154E+00
			37.00		37.523E+00
			37.50		32.369E+00
			38.00		27.978E+00
			38.50		25.004E+00
			39.00		22.496E+00
			39.50		20.673E+00
			40.00		19.030E+00
			40.50		17.802E+00
			41.00		16.707E+00
			41.50		15.776E+00
			42.00		14.917E+00
			42.50		14.214E+00
			43.00		13.537E+00
			43.50		12.913E+00
			44.00		12.356E+00
			44.50		11.894E+00
			45.00		11.437E+00
			45.50		11.047E+00
			46.00		10.693E+00
			46.50		10.322E+00
			47.00		9.9448E+00
			47.50		9.6218E+00
			48.00		9.3358E+00
			48.50		9.0975E+00
			49.00		8.8512E+00
			49.50		8.5877E+00
			50.00		8.3440E+00
			50.50		8.1679E+00
			51.00		7.9971E+00
			51.50		7.7958E+00
			52.00		7.6026E+00
			52.50		7.4508E+00
			53.00		7.2954E+00
			53.50		7.1321E+00
			54.00		6.9867E+00
			54.50		6.8514E+00
			55.00		6.6961E+00
			55.50		6.5427E+00
			56.00		6.4233E+00
			56.50		6.3148E+00
			57.00		6.1903E+00
			57.50		6.0910E+00
			58.00		5.9928E+00
			58.50		5.8619E+00
			59.00		5.7408E+00
			59.50		5.6604E+00
			60.00		5.5327E+00
		END_DATA
	END_SCAN  1
	BEGIN_SCAN  2
		TASK_NAME=tba PDD Profiles
		PROGRAM=WaterTankScans
		COMMENT=Mater Olbia
		MEAS_DATE=10-Mar-2022 18:45:52
		LINAC=MRIdian
		MODALITY=X
		ISOCENTER=900.00
		INPLANE_AXIS=Y
		CROSSPLANE_AXIS=X
		DEPTH_AXIS=Depth
		INPLANE_AXIS_DIR=TARGET_GUN
		CROSSPLANE_AXIS_DIR=LEFT_RIGHT
		DEPTH_AXIS_DIR=UP_DOWN
		ENERGY=6.00
		NOMINAL_DMAX=15.00
		SSD=850.00
		SCD=450.00
		WEDGE_ANGLE=0.00
		FIELD_INPLANE=66.40
		FIELD_CROSSPLANE=66.40
		FIELD_TYPE=RECTANGULAR
		GANTRY=0.00
		GANTRY_UPRIGHT_POSITION=0
		GANTRY_ROTATION=CW
		COLL_ANGLE=0.00
		COLL_OFFSET_INPLANE=0.00
		COLL_OFFSET_CROSSPLANE=0.00
		SCAN_DEVICE=BeamScan
		SCAN_DEVICE_SETUP=BARA_LEFT_RIGHT
		ELECTROMETER=BeamScan
		RANGE_FIELD=LOW
		RANGE_REFERENCE=MEDIUM
		DETECTOR=THIMBLE_CHAMBER
		DETECTOR_RADIUS=2.40
		DETECTOR_NAME=A28MR
		DETECTOR_SN=-
		DETECTOR_CALIBRATION=588000000.00
		DETECTOR_IS_CALIBRATED=0
		DETECTOR_REFERENCE=THIMBLE_CHAMBER
		DETECTOR_REFERENCE_RADIUS=2.75
		DETECTOR_REFERENCE_NAME=A28MR
		DETECTOR_REFERENCE_SN=â€”
		DETECTOR_REFERENCE_IS_CALIBRATED=0
		DETECTOR_REFERENCE_CALIBRATION=303000000.00
		DETECTOR_HV=300.0
		DETECTOR_REFERENCE_HV=300.0
		DETECTOR_ORIENTATION=HORIZONTAL
		FILTER=FFF
		SCAN_SPEED_PROFILE=10.00
		SCAN_PROF_SPEED_DEP=DEPTH
		SCAN_SPEED_PDD=0.00
		SCAN_PDD_SPEED_DEP=ENERGY
		DETECTOR_TYPE=A28MR
		REF_FIELD_DEPTH=220.00
		REF_FIELD_DEFINED=ISOCENTER
		REF_FIELD_INPLANE=100.00
		REF_FIELD_CROSSPLANE=100.00
		REF_SCAN_POSITIONS=-85.00;-84.00;-83.00;-82.00;-81.00;-80.00;-79.00;-78.00;-77.00;-76.00;-75.00;-74.00;-73.00;-72.00;-71.00;-70.00;-69.00;-68.00;-67.00;-66.00;-65.00;-64.00;-63.00;-62.00;-61.00;-60.00;-59.00;-58.00;-57.00;-56.00;-55.00;-54.00;-53.00;-52.00;-51.00;-50.00;-49.00;-48.00;-47.00;-46.00;-45.00;-44.00;-43.00;-42.00;-41.00;-40.00;-39.00;-38.00;-37.00;-36.00;-35.00;-34.00;-33.00;-32.00;-31.00;-30.00;-29.00;-28.00;-27.00;-26.00;-25.00;-24.00;-23.00;-22.00;-21.00;-20.00;-19.00;-18.00;-17.00;-16.00;-15.00;-14.00;-13.00;-12.00;-11.00;-10.00;-9.00;-8.00;-7.00;-6.00;-5.00;-4.00;-3.00;-2.00;-1.00;0.00;1.00;2.00;3.00;4.00;5.00;6.00;7.00;8.00;9.00;10.00;11.00;12.00;13.00;14.00;15.00;16.00;17.00;18.00;19.00;20.00;21.00;22.00;23.00;24.00;25.00;26.00;27.00;28.00;29.00;30.00;31.00;32.00;33.00;34.00;35.00;36.00;37.00;38.00;39.00;40.00;41.00;42.00;43.00;44.00;45.00;46.00;47.00;48.00;49.00;50.00;51.00;52.00;53.00;54.00;55.00;56.00;57.00;58.00;59.00;60.00;61.00;62.00;63.00;64.00;65.00;66.00;67.00;68.00;69.00;70.00;71.00;72.00;73.00;74.00;75.00;76.00;77.00;78.00;79.00;80.00;81.00;82.00;83.00;84.00;85.00;
		REF_OVERSCAN_FACTOR=1.00
		SCAN_CURVETYPE=CROSSPLANE_PROFILE
		SCAN_DEPTH=55.00
		SCAN_OFFAXIS_INPLANE=0.00
		SCAN_OFFAXIS_CROSSPLANE=0.00
		SCAN_ANGLE=0.00
		SCAN_DIAGONAL=NOT_DIAGONAL
		SCAN_DIRECTION=POSITIVE
		MEAS_MEDIUM=WATER
		MEAS_PRESET=MEAS_CONTINUOUS_REFERENCE_SCAN
		MEAS_TIME=0.100
		MEAS_UNIT=A.U.
		INCLINATION_ANGLE=0.00
		PRESSURE=1013.25
		TEMPERATURE=20.00
		NORM_TEMPERATURE=20.00
		CORRECTION_FACTOR=1.0000
		EXPECTED_MAX_DOSE_RATE=3.00
		EPOM_DEPTH_SHIFT=0.2
		EPOM_MODE=SHIFT_PROTOCOL
		CORRECTIONS=SSD_CORR;CAX_CORR;ADD_CURVES_CORR;MODIFIED_CORR;SYMMETRY_CORR;INTERPOLATED_CORR;
		BEGIN_DATA
			-60.00		8.6706E+00
			-59.50		8.9588E+00
			-59.00		9.1287E+00
			-58.50		9.3238E+00
			-58.00		9.4846E+00
			-57.50		9.5637E+00
			-57.00		9.7011E+00
			-56.50		9.8686E+00
			-56.00		10.277E+00
			-55.50		10.424E+00
			-55.00		10.644E+00
			-54.50		10.782E+00
			-54.00		11.029E+00
			-53.50		11.316E+00
			-53.00		11.680E+00
			-52.50		11.923E+00
			-52.00		12.183E+00
			-51.50		12.420E+00
			-51.00		12.805E+00
			-50.50		13.158E+00
			-50.00		13.551E+00
			-49.50		13.899E+00
			-49.00		14.232E+00
			-48.50		14.703E+00
			-48.00		15.002E+00
			-47.50		15.514E+00
			-47.00		16.116E+00
			-46.50		16.620E+00
			-46.00		17.284E+00
			-45.50		17.868E+00
			-45.00		18.483E+00
			-44.50		19.208E+00
			-44.00		20.027E+00
			-43.50		20.741E+00
			-43.00		21.693E+00
			-42.50		22.706E+00
			-42.00		24.010E+00
			-41.50		25.363E+00
			-41.00		26.843E+00
			-40.50		28.686E+00
			-40.00		31.107E+00
			-39.50		34.085E+00
			-39.00		37.648E+00
			-38.50		42.474E+00
			-38.00		48.558E+00
			-37.50		56.449E+00
			-37.00		65.732E+00
			-36.50		77.407E+00
			-36.00		90.872E+00
			-35.50		106.41E+00
			-35.00		123.18E+00
			-34.50		141.84E+00
			-34.00		160.99E+00
			-33.50		181.10E+00
			-33.00		201.16E+00
			-32.50		220.64E+00
			-32.00		240.10E+00
			-31.50		258.11E+00
			-31.00		275.35E+00
			-30.50		290.10E+00
			-30.00		303.75E+00
			-29.50		314.61E+00
			-29.00		324.06E+00
			-28.50		331.51E+00
			-28.00		338.10E+00
			-27.50		343.04E+00
			-27.00		347.29E+00
			-26.50		350.90E+00
			-26.00		354.01E+00
			-25.50		356.38E+00
			-25.00		358.59E+00
			-24.50		360.74E+00
			-24.00		362.44E+00
			-23.50		363.94E+00
			-23.00		365.39E+00
			-22.50		366.53E+00
			-22.00		367.84E+00
			-21.50		369.15E+00
			-21.00		370.40E+00
			-20.50		371.18E+00
			-20.00		371.97E+00
			-19.50		372.65E+00
			-19.00		373.39E+00
			-18.50		374.54E+00
			-18.00		375.64E+00
			-17.50		376.43E+00
			-17.00		377.01E+00
			-16.50		377.51E+00
			-16.00		377.96E+00
			-15.50		378.61E+00
			-15.00		379.22E+00
			-14.50		379.87E+00
			-14.00		380.51E+00
			-13.50		380.95E+00
			-13.00		381.32E+00
			-12.50		381.76E+00
			-12.00		382.23E+00
			-11.50		382.57E+00
			-11.00		383.24E+00
			-10.50		383.85E+00
			-10.00		384.29E+00
			-9.50		384.75E+00
			-9.00		385.07E+00
			-8.50		385.49E+00
			-8.00		385.77E+00
			-7.50		385.93E+00
			-7.00		386.02E+00
			-6.50		386.44E+00
			-6.00		386.89E+00
			-5.50		386.96E+00
			-5.00		386.98E+00
			-4.50		387.30E+00
			-4.00		387.51E+00
			-3.50		387.54E+00
			-3.00		387.67E+00
			-2.50		387.83E+00
			-2.00		388.23E+00
			-1.50		388.13E+00
			-1.00		388.08E+00
			-0.50		388.12E+00
			0.00		388.12E+00
			0.50		388.12E+00
			1.00		388.08E+00
			1.50		388.13E+00
			2.00		388.23E+00
			2.50		387.83E+00
			3.00		387.67E+00
			3.50		387.54E+00
			4.00		387.51E+00
			4.50		387.30E+00
			5.00		386.98E+00
			5.50		386.96E+00
			6.00		386.89E+00
			6.50		386.44E+00
			7.00		386.02E+00
			7.50		385.93E+00
			8.00		385.77E+00
			8.50		385.49E+00
			9.00		385.07E+00
			9.50		384.75E+00
			10.00		384.29E+00
			10.50		383.85E+00
			11.00		383.24E+00
			11.50		382.57E+00
			12.00		382.23E+00
			12.50		381.76E+00
			13.00		381.32E+00
			13.50		380.95E+00
			14.00		380.51E+00
			14.50		379.87E+00
			15.00		379.22E+00
			15.50		378.61E+00
			16.00		377.96E+00
			16.50		377.51E+00
			17.00		377.01E+00
			17.50		376.43E+00
			18.00		375.64E+00
			18.50		374.54E+00
			19.00		373.39E+00
			19.50		372.65E+00
			20.00		371.97E+00
			20.50		371.18E+00
			21.00		370.40E+00
			21.50		369.15E+00
			22.00		367.84E+00
			22.50		366.53E+00
			23.00		365.39E+00
			23.50		363.94E+00
			24.00		362.44E+00
			24.50		360.74E+00
			25.00		358.59E+00
			25.50		356.38E+00
			26.00		354.01E+00
			26.50		350.90E+00
			27.00		347.29E+00
			27.50		343.04E+00
			28.00		338.10E+00
			28.50		331.51E+00
			29.00		324.06E+00
			29.50		314.61E+00
			30.00		303.75E+00
			30.50		290.10E+00
			31.00		275.35E+00
			31.50		258.11E+00
			32.00		240.10E+00
			32.50		220.64E+00
			33.00		201.16E+00
			33.50		181.10E+00
			34.00		160.99E+00
			34.50		141.84E+00
			35.00		123.18E+00
			35.50		106.41E+00
			36.00		90.872E+00
			36.50		77.407E+00
			37.00		65.732E+00
			37.50		56.449E+00
			38.00		48.558E+00
			38.50		42.474E+00
			39.00		37.648E+00
			39.50		34.085E+00
			40.00		31.107E+00
			40.50		28.686E+00
			41.00		26.843E+00
			41.50		25.363E+00
			42.00		24.010E+00
			42.50		22.706E+00
			43.00		21.693E+00
			43.50		20.741E+00
			44.00		20.027E+00
			44.50		19.208E+00
			45.00		18.483E+00
			45.50		17.868E+00
			46.00		17.284E+00
			46.50		16.620E+00
			47.00		16.116E+00
			47.50		15.514E+00
			48.00		15.002E+00
			48.50		14.703E+00
			49.00		14.232E+00
			49.50		13.899E+00
			50.00		13.551E+00
			50.50		13.158E+00
			51.00		12.805E+00
			51.50		12.420E+00
			52.00		12.183E+00
			52.50		11.923E+00
			53.00		11.680E+00
			53.50		11.316E+00
			54.00		11.029E+00
			54.50		10.782E+00
			55.00		10.644E+00
			55.50		10.424E+00
			56.00		10.277E+00
			56.50		9.8686E+00
			57.00		9.7011E+00
			57.50		9.5637E+00
			58.00		9.4846E+00
			58.50		9.3238E+00
			59.00		9.1287E+00
			59.50		8.9588E+00
			60.00		8.6706E+00
		END_DATA
	END_SCAN  2
	BEGIN_SCAN  3
		TASK_NAME=tba PDD Profiles
		PROGRAM=WaterTankScans
		COMMENT=Mater Olbia
		MEAS_DATE=10-Mar-2022 18:46:12
		LINAC=MRIdian
		MODALITY=X
		ISOCENTER=900.00
		INPLANE_AXIS=Y
		CROSSPLANE_AXIS=X
		DEPTH_AXIS=Depth
		INPLANE_AXIS_DIR=TARGET_GUN
		CROSSPLANE_AXIS_DIR=LEFT_RIGHT
		DEPTH_AXIS_DIR=UP_DOWN
		ENERGY=6.00
		NOMINAL_DMAX=15.00
		SSD=850.00
		SCD=450.00
		WEDGE_ANGLE=0.00
		FIELD_INPLANE=66.40
		FIELD_CROSSPLANE=66.40
		FIELD_TYPE=RECTANGULAR
		GANTRY=0.00
		GANTRY_UPRIGHT_POSITION=0
		GANTRY_ROTATION=CW
		COLL_ANGLE=0.00
		COLL_OFFSET_INPLANE=0.00
		COLL_OFFSET_CROSSPLANE=0.00
		SCAN_DEVICE=BeamScan
		SCAN_DEVICE_SETUP=BARA_LEFT_RIGHT
		ELECTROMETER=BeamScan
		RANGE_FIELD=LOW
		RANGE_REFERENCE=MEDIUM
		DETECTOR=THIMBLE_CHAMBER
		DETECTOR_RADIUS=2.40
		DETECTOR_NAME=A28MR
		DETECTOR_SN=-
		DETECTOR_CALIBRATION=588000000.00
		DETECTOR_IS_CALIBRATED=0
		DETECTOR_REFERENCE=THIMBLE_CHAMBER
		DETECTOR_REFERENCE_RADIUS=2.75
		DETECTOR_REFERENCE_NAME=A28MR
		DETECTOR_REFERENCE_SN=â€”
		DETECTOR_REFERENCE_IS_CALIBRATED=0
		DETECTOR_REFERENCE_CALIBRATION=303000000.00
		DETECTOR_HV=300.0
		DETECTOR_REFERENCE_HV=300.0
		DETECTOR_ORIENTATION=HORIZONTAL
		FILTER=FFF
		SCAN_SPEED_PROFILE=10.00
		SCAN_PROF_SPEED_DEP=DEPTH
		SCAN_SPEED_PDD=0.00
		SCAN_PDD_SPEED_DEP=ENERGY
		DETECTOR_TYPE=A28MR
		REF_FIELD_DEPTH=220.00
		REF_FIELD_DEFINED=ISOCENTER
		REF_FIELD_INPLANE=100.00
		REF_FIELD_CROSSPLANE=100.00
		REF_SCAN_POSITIONS=-85.00;-84.00;-83.00;-82.00;-81.00;-80.00;-79.00;-78.00;-77.00;-76.00;-75.00;-74.00;-73.00;-72.00;-71.00;-70.00;-69.00;-68.00;-67.00;-66.00;-65.00;-64.00;-63.00;-62.00;-61.00;-60.00;-59.00;-58.00;-57.00;-56.00;-55.00;-54.00;-53.00;-52.00;-51.00;-50.00;-49.00;-48.00;-47.00;-46.00;-45.00;-44.00;-43.00;-42.00;-41.00;-40.00;-39.00;-38.00;-37.00;-36.00;-35.00;-34.00;-33.00;-32.00;-31.00;-30.00;-29.00;-28.00;-27.00;-26.00;-25.00;-24.00;-23.00;-22.00;-21.00;-20.00;-19.00;-18.00;-17.00;-16.00;-15.00;-14.00;-13.00;-12.00;-11.00;-10.00;-9.00;-8.00;-7.00;-6.00;-5.00;-4.00;-3.00;-2.00;-1.00;0.00;1.00;2.00;3.00;4.00;5.00;6.00;7.00;8.00;9.00;10.00;11.00;12.00;13.00;14.00;15.00;16.00;17.00;18.00;19.00;20.00;21.00;22.00;23.00;24.00;25.00;26.00;27.00;28.00;29.00;30.00;31.00;32.00;33.00;34.00;35.00;36.00;37.00;38.00;39.00;40.00;41.00;42.00;43.00;44.00;45.00;46.00;47.00;48.00;49.00;50.00;51.00;52.00;53.00;54.00;55.00;56.00;57.00;58.00;59.00;60.00;61.00;62.00;63.00;64.00;65.00;66.00;67.00;68.00;69.00;70.00;71.00;72.00;73.00;74.00;75.00;76.00;77.00;78.00;79.00;80.00;81.00;82.00;83.00;84.00;85.00;
		REF_OVERSCAN_FACTOR=1.00
		SCAN_CURVETYPE=CROSSPLANE_PROFILE
		SCAN_DEPTH=100.00
		SCAN_OFFAXIS_INPLANE=0.00
		SCAN_OFFAXIS_CROSSPLANE=0.00
		SCAN_ANGLE=0.00
		SCAN_DIAGONAL=NOT_DIAGONAL
		SCAN_DIRECTION=POSITIVE
		MEAS_MEDIUM=WATER
		MEAS_PRESET=MEAS_CONTINUOUS_REFERENCE_SCAN
		MEAS_TIME=0.100
		MEAS_UNIT=A.U.
		INCLINATION_ANGLE=0.00
		PRESSURE=1013.25
		TEMPERATURE=20.00
		NORM_TEMPERATURE=20.00
		CORRECTION_FACTOR=1.0000
		EXPECTED_MAX_DOSE_RATE=3.00
		EPOM_DEPTH_SHIFT=0.2
		EPOM_MODE=SHIFT_PROTOCOL
		CORRECTIONS=SSD_CORR;CAX_CORR;ADD_CURVES_CORR;MODIFIED_CORR;SYMMETRY_CORR;INTERPOLATED_CORR;
		BEGIN_DATA
			-60.00		11.058E+00
			-59.50		11.290E+00
			-59.00		11.351E+00
			-58.50		11.562E+00
			-58.00		11.780E+00
			-57.50		12.054E+00
			-57.00		12.364E+00
			-56.50		12.613E+00
			-56.00		12.945E+00
			-55.50		13.108E+00
			-55.00		13.238E+00
			-54.50		13.614E+00
			-54.00		13.814E+00
			-53.50		14.240E+00
			-53.00		14.548E+00
			-52.50		14.783E+00
			-52.00		15.124E+00
			-51.50		15.414E+00
			-51.00		15.727E+00
			-50.50		16.148E+00
			-50.00		16.448E+00
			-49.50		17.043E+00
			-49.00		17.456E+00
			-48.50		17.939E+00
			-48.00		18.341E+00
			-47.50		18.915E+00
			-47.00		19.490E+00
			-46.50		20.124E+00
			-46.00		20.801E+00
			-45.50		21.355E+00
			-45.00		22.108E+00
			-44.50		22.854E+00
			-44.00		23.715E+00
			-43.50		24.707E+00
			-43.00		25.770E+00
			-42.50		27.276E+00
			-42.00		28.960E+00
			-41.50		30.876E+00
			-41.00		33.190E+00
			-40.50		36.547E+00
			-40.00		40.149E+00
			-39.50		45.371E+00
			-39.00		51.121E+00
			-38.50		58.889E+00
			-38.00		67.141E+00
			-37.50		77.595E+00
			-37.00		88.564E+00
			-36.50		100.98E+00
			-36.00		114.02E+00
			-35.50		127.70E+00
			-35.00		141.66E+00
			-34.50		155.80E+00
			-34.00		169.71E+00
			-33.50		183.06E+00
			-33.00		195.59E+00
			-32.50		207.15E+00
			-32.00		217.61E+00
			-31.50		226.40E+00
			-31.00		234.34E+00
			-30.50		240.67E+00
			-30.00		246.40E+00
			-29.50		250.60E+00
			-29.00		254.64E+00
			-28.50		257.62E+00
			-28.00		260.46E+00
			-27.50		262.54E+00
			-27.00		264.37E+00
			-26.50		265.93E+00
			-26.00		267.57E+00
			-25.50		268.81E+00
			-25.00		270.15E+00
			-24.50		271.12E+00
			-24.00		272.07E+00
			-23.50		273.10E+00
			-23.00		274.09E+00
			-22.50		275.01E+00
			-22.00		276.00E+00
			-21.50		276.76E+00
			-21.00		277.47E+00
			-20.50		278.17E+00
			-20.00		278.91E+00
			-19.50		279.43E+00
			-19.00		280.08E+00
			-18.50		280.65E+00
			-18.00		281.25E+00
			-17.50		281.75E+00
			-17.00		282.24E+00
			-16.50		282.78E+00
			-16.00		283.29E+00
			-15.50		283.90E+00
			-15.00		284.44E+00
			-14.50		284.61E+00
			-14.00		284.87E+00
			-13.50		285.37E+00
			-13.00		285.90E+00
			-12.50		286.01E+00
			-12.00		286.21E+00
			-11.50		286.75E+00
			-11.00		287.35E+00
			-10.50		287.46E+00
			-10.00		287.65E+00
			-9.50		288.20E+00
			-9.00		288.65E+00
			-8.50		288.72E+00
			-8.00		288.96E+00
			-7.50		289.00E+00
			-7.00		289.25E+00
			-6.50		289.54E+00
			-6.00		289.83E+00
			-5.50		289.83E+00
			-5.00		289.83E+00
			-4.50		290.29E+00
			-4.00		290.56E+00
			-3.50		290.63E+00
			-3.00		290.71E+00
			-2.50		290.71E+00
			-2.00		290.71E+00
			-1.50		290.94E+00
			-1.00		291.13E+00
			-0.50		290.97E+00
			0.00		290.85E+00
			0.50		290.97E+00
			1.00		291.13E+00
			1.50		290.94E+00
			2.00		290.71E+00
			2.50		290.71E+00
			3.00		290.71E+00
			3.50		290.63E+00
			4.00		290.56E+00
			4.50		290.29E+00
			5.00		289.83E+00
			5.50		289.83E+00
			6.00		289.83E+00
			6.50		289.54E+00
			7.00		289.25E+00
			7.50		289.00E+00
			8.00		288.96E+00
			8.50		288.72E+00
			9.00		288.65E+00
			9.50		288.20E+00
			10.00		287.65E+00
			10.50		287.46E+00
			11.00		287.35E+00
			11.50		286.75E+00
			12.00		286.21E+00
			12.50		286.01E+00
			13.00		285.90E+00
			13.50		285.37E+00
			14.00		284.87E+00
			14.50		284.61E+00
			15.00		284.44E+00
			15.50		283.90E+00
			16.00		283.29E+00
			16.50		282.78E+00
			17.00		282.24E+00
			17.50		281.75E+00
			18.00		281.25E+00
			18.50		280.65E+00
			19.00		280.08E+00
			19.50		279.43E+00
			20.00		278.91E+00
			20.50		278.17E+00
			21.00		277.47E+00
			21.50		276.76E+00
			22.00		276.00E+00
			22.50		275.01E+00
			23.00		274.09E+00
			23.50		273.10E+00
			24.00		272.07E+00
			24.50		271.12E+00
			25.00		270.15E+00
			25.50		268.81E+00
			26.00		267.57E+00
			26.50		265.93E+00
			27.00		264.37E+00
			27.50		262.54E+00
			28.00		260.46E+00
			28.50		257.62E+00
			29.00		254.64E+00
			29.50		250.60E+00
			30.00		246.40E+00
			30.50		240.67E+00
			31.00		234.34E+00
			31.50		226.40E+00
			32.00		217.61E+00
			32.50		207.15E+00
			33.00		195.59E+00
			33.50		183.06E+00
			34.00		169.71E+00
			34.50		155.80E+00
			35.00		141.66E+00
			35.50		127.70E+00
			36.00		114.02E+00
			36.50		100.98E+00
			37.00		88.564E+00
			37.50		77.595E+00
			38.00		67.141E+00
			38.50		58.889E+00
			39.00		51.121E+00
			39.50		45.371E+00
			40.00		40.149E+00
			40.50		36.547E+00
			41.00		33.190E+00
			41.50		30.876E+00
			42.00		28.960E+00
			42.50		27.276E+00
			43.00		25.770E+00
			43.50		24.707E+00
			44.00		23.715E+00
			44.50		22.854E+00
			45.00		22.108E+00
			45.50		21.355E+00
			46.00		20.801E+00
			46.50		20.124E+00
			47.00		19.490E+00
			47.50		18.915E+00
			48.00		18.341E+00
			48.50		17.939E+00
			49.00		17.456E+00
			49.50		17.043E+00
			50.00		16.448E+00
			50.50		16.148E+00
			51.00		15.727E+00
			51.50		15.414E+00
			52.00		15.124E+00
			52.50		14.783E+00
			53.00		14.548E+00
			53.50		14.240E+00
			54.00		13.814E+00
			54.50		13.614E+00
			55.00		13.238E+00
			55.50		13.108E+00
			56.00		12.945E+00
			56.50		12.613E+00
			57.00		12.364E+00
			57.50		12.054E+00
			58.00		11.780E+00
			58.50		11.562E+00
			59.00		11.351E+00
			59.50		11.290E+00
			60.00		11.058E+00
		END_DATA
	END_SCAN  3
	BEGIN_SCAN  4
		TASK_NAME=tba PDD Profiles
		PROGRAM=WaterTankScans
		COMMENT=Mater Olbia
		MEAS_DATE=08-Feb-2021 09:38:10
		LINAC=MRIdian
		MODALITY=X
		ISOCENTER=900.00
		INPLANE_AXIS=Y
		CROSSPLANE_AXIS=X
		DEPTH_AXIS=Depth
		INPLANE_AXIS_DIR=TARGET_GUN
		CROSSPLANE_AXIS_DIR=LEFT_RIGHT
		DEPTH_AXIS_DIR=UP_DOWN
		ENERGY=6.00
		NOMINAL_DMAX=15.00
		SSD=850.00
		SCD=450.00
		WEDGE_ANGLE=0.00
		FIELD_INPLANE=66.40
		FIELD_CROSSPLANE=66.40
		FIELD_TYPE=RECTANGULAR
		GANTRY=0.00
		GANTRY_UPRIGHT_POSITION=0
		GANTRY_ROTATION=CW
		COLL_ANGLE=0.00
		COLL_OFFSET_INPLANE=0.00
		COLL_OFFSET_CROSSPLANE=0.00
		SCAN_DEVICE=BeamScan
		SCAN_DEVICE_SETUP=BARA_LEFT_RIGHT
		ELECTROMETER=BeamScan
		RANGE_FIELD=LOW
		RANGE_REFERENCE=MEDIUM
		DETECTOR=THIMBLE_CHAMBER
		DETECTOR_RADIUS=2.40
		DETECTOR_NAME=A28MR
		DETECTOR_SN=-
		DETECTOR_CALIBRATION=588000000.00
		DETECTOR_IS_CALIBRATED=0
		DETECTOR_REFERENCE=THIMBLE_CHAMBER
		DETECTOR_REFERENCE_RADIUS=2.75
		DETECTOR_REFERENCE_NAME=A28MR
		DETECTOR_REFERENCE_SN=â€”
		DETECTOR_REFERENCE_IS_CALIBRATED=0
		DETECTOR_REFERENCE_CALIBRATION=303000000.00
		DETECTOR_HV=300.0
		DETECTOR_REFERENCE_HV=300.0
		DETECTOR_ORIENTATION=HORIZONTAL
		FILTER=FFF
		SCAN_SPEED_PROFILE=10.00
		SCAN_PROF_SPEED_DEP=DEPTH
		SCAN_SPEED_PDD=0.00
		SCAN_PDD_SPEED_DEP=ENERGY
		DETECTOR_TYPE=A28MR
		REF_FIELD_DEPTH=220.00
		REF_FIELD_DEFINED=ISOCENTER
		REF_FIELD_INPLANE=100.00
		REF_FIELD_CROSSPLANE=100.00
		REF_SCAN_POSITIONS=-85.00;-84.00;-83.00;-82.00;-81.00;-80.00;-79.00;-78.00;-77.00;-76.00;-75.00;-74.00;-73.00;-72.00;-71.00;-70.00;-69.00;-68.00;-67.00;-66.00;-65.00;-64.00;-63.00;-62.00;-61.00;-60.00;-59.00;-58.00;-57.00;-56.00;-55.00;-54.00;-53.00;-52.00;-51.00;-50.00;-49.00;-48.00;-47.00;-46.00;-45.00;-44.00;-43.00;-42.00;-41.00;-40.00;-39.00;-38.00;-37.00;-36.00;-35.00;-34.00;-33.00;-32.00;-31.00;-30.00;-29.00;-28.00;-27.00;-26.00;-25.00;-24.00;-23.00;-22.00;-21.00;-20.00;-19.00;-18.00;-17.00;-16.00;-15.00;-14.00;-13.00;-12.00;-11.00;-10.00;-9.00;-8.00;-7.00;-6.00;-5.00;-4.00;-3.00;-2.00;-1.00;0.00;1.00;2.00;3.00;4.00;5.00;6.00;7.00;8.00;9.00;10.00;11.00;12.00;13.00;14.00;15.00;16.00;17.00;18.00;19.00;20.00;21.00;22.00;23.00;24.00;25.00;26.00;27.00;28.00;29.00;30.00;31.00;32.00;33.00;34.00;35.00;36.00;37.00;38.00;39.00;40.00;41.00;42.00;43.00;44.00;45.00;46.00;47.00;48.00;49.00;50.00;51.00;52.00;53.00;54.00;55.00;56.00;57.00;58.00;59.00;60.00;61.00;62.00;63.00;64.00;65.00;66.00;67.00;68.00;69.00;70.00;71.00;72.00;73.00;74.00;75.00;76.00;77.00;78.00;79.00;80.00;81.00;82.00;83.00;84.00;85.00;
		REF_OVERSCAN_FACTOR=1.00
		SCAN_CURVETYPE=CROSSPLANE_PROFILE
		SCAN_DEPTH=150.00
		SCAN_OFFAXIS_INPLANE=0.00
		SCAN_OFFAXIS_CROSSPLANE=0.00
		SCAN_ANGLE=0.00
		SCAN_DIAGONAL=NOT_DIAGONAL
		SCAN_DIRECTION=POSITIVE
		MEAS_MEDIUM=WATER
		MEAS_PRESET=MEAS_CONTINUOUS_REFERENCE_SCAN
		MEAS_TIME=0.100
		MEAS_UNIT=A.U.
		INCLINATION_ANGLE=0.00
		PRESSURE=1013.25
		TEMPERATURE=20.00
		NORM_TEMPERATURE=20.00
		CORRECTION_FACTOR=1.0000
		EXPECTED_MAX_DOSE_RATE=3.00
		EPOM_DEPTH_SHIFT=0.2
		EPOM_MODE=SHIFT_PROTOCOL
		CORRECTIONS=SSD_CORR;CAX_CORR;SYMMETRY_CORR;INTERPOLATED_CORR;
		BEGIN_DATA
			-64.50		10.644E+00
			-64.00		10.808E+00
			-63.50		10.957E+00
			-63.00		11.112E+00
			-62.50		11.264E+00
			-62.00		11.453E+00
			-61.50		11.662E+00
			-61.00		11.862E+00
			-60.50		12.055E+00
			-60.00		12.271E+00
			-59.50		12.500E+00
			-59.00		12.698E+00
			-58.50		12.880E+00
			-58.00		13.088E+00
			-57.50		13.336E+00
			-57.00		13.578E+00
			-56.50		13.817E+00
			-56.00		14.061E+00
			-55.50		14.351E+00
			-55.00		14.645E+00
			-54.50		14.890E+00
			-54.00		15.118E+00
			-53.50		15.427E+00
			-53.00		15.775E+00
			-52.50		16.100E+00
			-52.00		16.398E+00
			-51.50		16.707E+00
			-51.00		17.079E+00
			-50.50		17.454E+00
			-50.00		17.863E+00
			-49.50		18.284E+00
			-49.00		18.755E+00
			-48.50		19.226E+00
			-48.00		19.740E+00
			-47.50		20.257E+00
			-47.00		20.884E+00
			-46.50		21.568E+00
			-46.00		22.315E+00
			-45.50		23.138E+00
			-45.00		24.034E+00
			-44.50		25.106E+00
			-44.00		26.296E+00
			-43.50		27.972E+00
			-43.00		29.745E+00
			-42.50		32.320E+00
			-42.00		35.049E+00
			-41.50		39.030E+00
			-41.00		43.305E+00
			-40.50		48.957E+00
			-40.00		55.110E+00
			-39.50		62.292E+00
			-39.00		70.232E+00
			-38.50		78.851E+00
			-38.00		88.352E+00
			-37.50		98.056E+00
			-37.00		108.34E+00
			-36.50		118.59E+00
			-36.00		128.62E+00
			-35.50		138.58E+00
			-35.00		147.92E+00
			-34.50		157.10E+00
			-34.00		164.81E+00
			-33.50		172.10E+00
			-33.00		178.27E+00
			-32.50		183.86E+00
			-32.00		188.46E+00
			-31.50		192.23E+00
			-31.00		195.62E+00
			-30.50		198.38E+00
			-30.00		200.85E+00
			-29.50		202.54E+00
			-29.00		204.25E+00
			-28.50		205.78E+00
			-28.00		207.22E+00
			-27.50		208.26E+00
			-27.00		209.30E+00
			-26.50		210.24E+00
			-26.00		211.14E+00
			-25.50		211.93E+00
			-25.00		212.64E+00
			-24.50		213.30E+00
			-24.00		213.97E+00
			-23.50		214.64E+00
			-23.00		215.11E+00
			-22.50		215.57E+00
			-22.00		216.08E+00
			-21.50		216.62E+00
			-21.00		217.26E+00
			-20.50		217.90E+00
			-20.00		218.38E+00
			-19.50		218.80E+00
			-19.00		218.94E+00
			-18.50		219.07E+00
			-18.00		219.48E+00
			-17.50		219.97E+00
			-17.00		220.39E+00
			-16.50		220.82E+00
			-16.00		221.17E+00
			-15.50		221.47E+00
			-15.00		221.84E+00
			-14.50		222.29E+00
			-14.00		222.70E+00
			-13.50		222.96E+00
			-13.00		223.23E+00
			-12.50		223.53E+00
			-12.00		223.89E+00
			-11.50		224.10E+00
			-11.00		224.13E+00
			-10.50		224.22E+00
			-10.00		224.49E+00
			-9.50		224.77E+00
			-9.00		224.87E+00
			-8.50		224.93E+00
			-8.00		225.14E+00
			-7.50		225.39E+00
			-7.00		225.62E+00
			-6.50		225.80E+00
			-6.00		225.97E+00
			-5.50		226.16E+00
			-5.00		226.27E+00
			-4.50		226.34E+00
			-4.00		226.46E+00
			-3.50		226.62E+00
			-3.00		226.76E+00
			-2.50		226.85E+00
			-2.00		226.83E+00
			-1.50		226.85E+00
			-1.00		226.90E+00
			-0.50		226.77E+00
			0.00		226.66E+00
			0.50		226.77E+00
			1.00		226.90E+00
			1.50		226.85E+00
			2.00		226.83E+00
			2.50		226.85E+00
			3.00		226.76E+00
			3.50		226.62E+00
			4.00		226.46E+00
			4.50		226.34E+00
			5.00		226.27E+00
			5.50		226.16E+00
			6.00		225.97E+00
			6.50		225.80E+00
			7.00		225.62E+00
			7.50		225.39E+00
			8.00		225.14E+00
			8.50		224.93E+00
			9.00		224.87E+00
			9.50		224.77E+00
			10.00		224.49E+00
			10.50		224.22E+00
			11.00		224.13E+00
			11.50		224.10E+00
			12.00		223.89E+00
			12.50		223.53E+00
			13.00		223.23E+00
			13.50		222.96E+00
			14.00		222.70E+00
			14.50		222.29E+00
			15.00		221.84E+00
			15.50		221.47E+00
			16.00		221.17E+00
			16.50		220.82E+00
			17.00		220.39E+00
			17.50		219.97E+00
			18.00		219.48E+00
			18.50		219.07E+00
			19.00		218.94E+00
			19.50		218.80E+00
			20.00		218.38E+00
			20.50		217.90E+00
			21.00		217.26E+00
			21.50		216.62E+00
			22.00		216.08E+00
			22.50		215.57E+00
			23.00		215.11E+00
			23.50		214.64E+00
			24.00		213.97E+00
			24.50		213.30E+00
			25.00		212.64E+00
			25.50		211.93E+00
			26.00		211.14E+00
			26.50		210.24E+00
			27.00		209.30E+00
			27.50		208.26E+00
			28.00		207.22E+00
			28.50		205.78E+00
			29.00		204.25E+00
			29.50		202.54E+00
			30.00		200.85E+00
			30.50		198.38E+00
			31.00		195.62E+00
			31.50		192.23E+00
			32.00		188.46E+00
			32.50		183.86E+00
			33.00		178.27E+00
			33.50		172.10E+00
			34.00		164.81E+00
			34.50		157.10E+00
			35.00		147.92E+00
			35.50		138.58E+00
			36.00		128.62E+00
			36.50		118.59E+00
			37.00		108.34E+00
			37.50		98.056E+00
			38.00		88.352E+00
			38.50		78.851E+00
			39.00		70.232E+00
			39.50		62.292E+00
			40.00		55.110E+00
			40.50		48.957E+00
			41.00		43.305E+00
			41.50		39.030E+00
			42.00		35.049E+00
			42.50		32.320E+00
			43.00		29.745E+00
			43.50		27.972E+00
			44.00		26.296E+00
			44.50		25.106E+00
			45.00		24.034E+00
			45.50		23.138E+00
			46.00		22.315E+00
			46.50		21.568E+00
			47.00		20.884E+00
			47.50		20.257E+00
			48.00		19.740E+00
			48.50		19.226E+00
			49.00		18.755E+00
			49.50		18.284E+00
			50.00		17.863E+00
			50.50		17.454E+00
			51.00		17.079E+00
			51.50		16.707E+00
			52.00		16.398E+00
			52.50		16.100E+00
			53.00		15.775E+00
			53.50		15.427E+00
			54.00		15.118E+00
			54.50		14.890E+00
			55.00		14.645E+00
			55.50		14.351E+00
			56.00		14.061E+00
			56.50		13.817E+00
			57.00		13.578E+00
			57.50		13.336E+00
			58.00		13.088E+00
			58.50		12.880E+00
			59.00		12.698E+00
			59.50		12.500E+00
			60.00		12.271E+00
			60.50		12.055E+00
			61.00		11.862E+00
			61.50		11.662E+00
			62.00		11.453E+00
			62.50		11.264E+00
			63.00		11.112E+00
			63.50		10.957E+00
			64.00		10.808E+00
			64.50		10.644E+00
		END_DATA
	END_SCAN  4
	BEGIN_SCAN  5
		TASK_NAME=tba PDD Profiles
		PROGRAM=WaterTankScans
		COMMENT=Mater Olbia
		MEAS_DATE=08-Feb-2021 09:38:10
		LINAC=MRIdian
		MODALITY=X
		ISOCENTER=900.00
		INPLANE_AXIS=Y
		CROSSPLANE_AXIS=X
		DEPTH_AXIS=Depth
		INPLANE_AXIS_DIR=TARGET_GUN
		CROSSPLANE_AXIS_DIR=LEFT_RIGHT
		DEPTH_AXIS_DIR=UP_DOWN
		ENERGY=6.00
		NOMINAL_DMAX=15.00
		SSD=850.00
		SCD=450.00
		WEDGE_ANGLE=0.00
		FIELD_INPLANE=66.40
		FIELD_CROSSPLANE=66.40
		FIELD_TYPE=RECTANGULAR
		GANTRY=0.00
		GANTRY_UPRIGHT_POSITION=0
		GANTRY_ROTATION=CW
		COLL_ANGLE=0.00
		COLL_OFFSET_INPLANE=0.00
		COLL_OFFSET_CROSSPLANE=0.00
		SCAN_DEVICE=BeamScan
		SCAN_DEVICE_SETUP=BARA_LEFT_RIGHT
		ELECTROMETER=BeamScan
		RANGE_FIELD=LOW
		RANGE_REFERENCE=MEDIUM
		DETECTOR=THIMBLE_CHAMBER
		DETECTOR_RADIUS=2.40
		DETECTOR_NAME=A28MR
		DETECTOR_SN=-
		DETECTOR_CALIBRATION=588000000.00
		DETECTOR_IS_CALIBRATED=0
		DETECTOR_REFERENCE=THIMBLE_CHAMBER
		DETECTOR_REFERENCE_RADIUS=2.75
		DETECTOR_REFERENCE_NAME=A28MR
		DETECTOR_REFERENCE_SN=â€”
		DETECTOR_REFERENCE_IS_CALIBRATED=0
		DETECTOR_REFERENCE_CALIBRATION=303000000.00
		DETECTOR_HV=300.0
		DETECTOR_REFERENCE_HV=300.0
		DETECTOR_ORIENTATION=HORIZONTAL
		FILTER=FFF
		SCAN_SPEED_PROFILE=10.00
		SCAN_PROF_SPEED_DEP=DEPTH
		SCAN_SPEED_PDD=0.00
		SCAN_PDD_SPEED_DEP=ENERGY
		DETECTOR_TYPE=A28MR
		REF_FIELD_DEPTH=220.00
		REF_FIELD_DEFINED=ISOCENTER
		REF_FIELD_INPLANE=100.00
		REF_FIELD_CROSSPLANE=100.00
		REF_SCAN_POSITIONS=-85.00;-84.00;-83.00;-82.00;-81.00;-80.00;-79.00;-78.00;-77.00;-76.00;-75.00;-74.00;-73.00;-72.00;-71.00;-70.00;-69.00;-68.00;-67.00;-66.00;-65.00;-64.00;-63.00;-62.00;-61.00;-60.00;-59.00;-58.00;-57.00;-56.00;-55.00;-54.00;-53.00;-52.00;-51.00;-50.00;-49.00;-48.00;-47.00;-46.00;-45.00;-44.00;-43.00;-42.00;-41.00;-40.00;-39.00;-38.00;-37.00;-36.00;-35.00;-34.00;-33.00;-32.00;-31.00;-30.00;-29.00;-28.00;-27.00;-26.00;-25.00;-24.00;-23.00;-22.00;-21.00;-20.00;-19.00;-18.00;-17.00;-16.00;-15.00;-14.00;-13.00;-12.00;-11.00;-10.00;-9.00;-8.00;-7.00;-6.00;-5.00;-4.00;-3.00;-2.00;-1.00;0.00;1.00;2.00;3.00;4.00;5.00;6.00;7.00;8.00;9.00;10.00;11.00;12.00;13.00;14.00;15.00;16.00;17.00;18.00;19.00;20.00;21.00;22.00;23.00;24.00;25.00;26.00;27.00;28.00;29.00;30.00;31.00;32.00;33.00;34.00;35.00;36.00;37.00;38.00;39.00;40.00;41.00;42.00;43.00;44.00;45.00;46.00;47.00;48.00;49.00;50.00;51.00;52.00;53.00;54.00;55.00;56.00;57.00;58.00;59.00;60.00;61.00;62.00;63.00;64.00;65.00;66.00;67.00;68.00;69.00;70.00;71.00;72.00;73.00;74.00;75.00;76.00;77.00;78.00;79.00;80.00;81.00;82.00;83.00;84.00;85.00;
		REF_OVERSCAN_FACTOR=1.00
		SCAN_CURVETYPE=CROSSPLANE_PROFILE
		SCAN_DEPTH=200.00
		SCAN_OFFAXIS_INPLANE=0.00
		SCAN_OFFAXIS_CROSSPLANE=0.00
		SCAN_ANGLE=0.00
		SCAN_DIAGONAL=NOT_DIAGONAL
		SCAN_DIRECTION=POSITIVE
		MEAS_MEDIUM=WATER
		MEAS_PRESET=MEAS_CONTINUOUS_REFERENCE_SCAN
		MEAS_TIME=0.100
		MEAS_UNIT=A.U.
		INCLINATION_ANGLE=0.00
		PRESSURE=1013.25
		TEMPERATURE=20.00
		NORM_TEMPERATURE=20.00
		CORRECTION_FACTOR=1.0000
		EXPECTED_MAX_DOSE_RATE=3.00
		EPOM_DEPTH_SHIFT=0.2
		EPOM_MODE=SHIFT_PROTOCOL
		CORRECTIONS=SSD_CORR;CAX_CORR;SYMMETRY_CORR;INTERPOLATED_CORR;
		BEGIN_DATA
			-64.00		10.011E+00
			-63.50		10.140E+00
			-63.00		10.304E+00
			-62.50		10.495E+00
			-62.00		10.660E+00
			-61.50		10.765E+00
			-61.00		10.875E+00
			-60.50		11.089E+00
			-60.00		11.304E+00
			-59.50		11.454E+00
			-59.00		11.594E+00
			-58.50		11.771E+00
			-58.00		11.963E+00
			-57.50		12.173E+00
			-57.00		12.384E+00
			-56.50		12.565E+00
			-56.00		12.714E+00
			-55.50		12.903E+00
			-55.00		13.169E+00
			-54.50		13.436E+00
			-54.00		13.688E+00
			-53.50		13.950E+00
			-53.00		14.238E+00
			-52.50		14.522E+00
			-52.00		14.763E+00
			-51.50		15.001E+00
			-51.00		15.350E+00
			-50.50		15.718E+00
			-50.00		16.112E+00
			-49.50		16.507E+00
			-49.00		16.945E+00
			-48.50		17.409E+00
			-48.00		17.921E+00
			-47.50		18.499E+00
			-47.00		19.142E+00
			-46.50		19.971E+00
			-46.00		20.864E+00
			-45.50		22.080E+00
			-45.00		23.323E+00
			-44.50		25.123E+00
			-44.00		26.976E+00
			-43.50		29.681E+00
			-43.00		32.540E+00
			-42.50		36.298E+00
			-42.00		40.420E+00
			-41.50		45.219E+00
			-41.00		50.556E+00
			-40.50		56.388E+00
			-40.00		62.854E+00
			-39.50		69.464E+00
			-39.00		76.565E+00
			-38.50		83.666E+00
			-38.00		90.576E+00
			-37.50		97.464E+00
			-37.00		103.99E+00
			-36.50		110.49E+00
			-36.00		115.97E+00
			-35.50		121.23E+00
			-35.00		125.69E+00
			-34.50		129.83E+00
			-34.00		133.34E+00
			-33.50		136.37E+00
			-33.00		138.93E+00
			-32.50		140.92E+00
			-32.00		142.79E+00
			-31.50		144.30E+00
			-31.00		145.75E+00
			-30.50		146.93E+00
			-30.00		148.11E+00
			-29.50		148.97E+00
			-29.00		149.80E+00
			-28.50		150.36E+00
			-28.00		150.90E+00
			-27.50		151.44E+00
			-27.00		151.96E+00
			-26.50		152.43E+00
			-26.00		152.82E+00
			-25.50		153.29E+00
			-25.00		153.83E+00
			-24.50		154.37E+00
			-24.00		154.96E+00
			-23.50		155.53E+00
			-23.00		155.70E+00
			-22.50		155.87E+00
			-22.00		156.30E+00
			-21.50		156.74E+00
			-21.00		157.05E+00
			-20.50		157.33E+00
			-20.00		157.51E+00
			-19.50		157.69E+00
			-19.00		157.97E+00
			-18.50		158.32E+00
			-18.00		158.69E+00
			-17.50		159.06E+00
			-17.00		159.34E+00
			-16.50		159.49E+00
			-16.00		159.68E+00
			-15.50		159.91E+00
			-15.00		160.12E+00
			-14.50		160.34E+00
			-14.00		160.57E+00
			-13.50		160.69E+00
			-13.00		160.80E+00
			-12.50		160.96E+00
			-12.00		161.16E+00
			-11.50		161.31E+00
			-11.00		161.40E+00
			-10.50		161.52E+00
			-10.00		161.68E+00
			-9.50		161.83E+00
			-9.00		162.08E+00
			-8.50		162.33E+00
			-8.00		162.34E+00
			-7.50		162.35E+00
			-7.00		162.71E+00
			-6.50		163.13E+00
			-6.00		163.21E+00
			-5.50		163.22E+00
			-5.00		163.14E+00
			-4.50		163.09E+00
			-4.00		163.08E+00
			-3.50		163.04E+00
			-3.00		163.09E+00
			-2.50		163.31E+00
			-2.00		163.46E+00
			-1.50		163.43E+00
			-1.00		163.42E+00
			-0.50		163.45E+00
			0.00		163.48E+00
			0.50		163.45E+00
			1.00		163.42E+00
			1.50		163.43E+00
			2.00		163.46E+00
			2.50		163.31E+00
			3.00		163.09E+00
			3.50		163.04E+00
			4.00		163.08E+00
			4.50		163.09E+00
			5.00		163.14E+00
			5.50		163.22E+00
			6.00		163.21E+00
			6.50		163.13E+00
			7.00		162.71E+00
			7.50		162.35E+00
			8.00		162.34E+00
			8.50		162.33E+00
			9.00		162.08E+00
			9.50		161.83E+00
			10.00		161.68E+00
			10.50		161.52E+00
			11.00		161.40E+00
			11.50		161.31E+00
			12.00		161.16E+00
			12.50		160.96E+00
			13.00		160.80E+00
			13.50		160.69E+00
			14.00		160.57E+00
			14.50		160.34E+00
			15.00		160.12E+00
			15.50		159.91E+00
			16.00		159.68E+00
			16.50		159.49E+00
			17.00		159.34E+00
			17.50		159.06E+00
			18.00		158.69E+00
			18.50		158.32E+00
			19.00		157.97E+00
			19.50		157.69E+00
			20.00		157.51E+00
			20.50		157.33E+00
			21.00		157.05E+00
			21.50		156.74E+00
			22.00		156.30E+00
			22.50		155.87E+00
			23.00		155.70E+00
			23.50		155.53E+00
			24.00		154.96E+00
			24.50		154.37E+00
			25.00		153.83E+00
			25.50		153.29E+00
			26.00		152.82E+00
			26.50		152.43E+00
			27.00		151.96E+00
			27.50		151.44E+00
			28.00		150.90E+00
			28.50		150.36E+00
			29.00		149.80E+00
			29.50		148.97E+00
			30.00		148.11E+00
			30.50		146.93E+00
			31.00		145.75E+00
			31.50		144.30E+00
			32.00		142.79E+00
			32.50		140.92E+00
			33.00		138.93E+00
			33.50		136.37E+00
			34.00		133.34E+00
			34.50		129.83E+00
			35.00		125.69E+00
			35.50		121.23E+00
			36.00		115.97E+00
			36.50		110.49E+00
			37.00		103.99E+00
			37.50		97.464E+00
			38.00		90.576E+00
			38.50		83.666E+00
			39.00		76.565E+00
			39.50		69.464E+00
			40.00		62.854E+00
			40.50		56.388E+00
			41.00		50.556E+00
			41.50		45.219E+00
			42.00		40.420E+00
			42.50		36.298E+00
			43.00		32.540E+00
			43.50		29.681E+00
			44.00		26.976E+00
			44.50		25.123E+00
			45.00		23.323E+00
			45.50		22.080E+00
			46.00		20.864E+00
			46.50		19.971E+00
			47.00		19.142E+00
			47.50		18.499E+00
			48.00		17.921E+00
			48.50		17.409E+00
			49.00		16.945E+00
			49.50		16.507E+00
			50.00		16.112E+00
			50.50		15.718E+00
			51.00		15.350E+00
			51.50		15.001E+00
			52.00		14.763E+00
			52.50		14.522E+00
			53.00		14.238E+00
			53.50		13.950E+00
			54.00		13.688E+00
			54.50		13.436E+00
			55.00		13.169E+00
			55.50		12.903E+00
			56.00		12.714E+00
			56.50		12.565E+00
			57.00		12.384E+00
			57.50		12.173E+00
			58.00		11.963E+00
			58.50		11.771E+00
			59.00		11.594E+00
			59.50		11.454E+00
			60.00		11.304E+00
			60.50		11.089E+00
			61.00		10.875E+00
			61.50		10.765E+00
			62.00		10.660E+00
			62.50		10.495E+00
			63.00		10.304E+00
			63.50		10.140E+00
			64.00		10.011E+00
		END_DATA
	END_SCAN  5
	BEGIN_SCAN  6
		TASK_NAME=tba PDD Profiles
		PROGRAM=WaterTankScans
		COMMENT=Mater Olbia
		MEAS_DATE=08-Feb-2021 09:38:10
		LINAC=MRIdian
		MODALITY=X
		ISOCENTER=900.00
		INPLANE_AXIS=Y
		CROSSPLANE_AXIS=X
		DEPTH_AXIS=Depth
		INPLANE_AXIS_DIR=TARGET_GUN
		CROSSPLANE_AXIS_DIR=LEFT_RIGHT
		DEPTH_AXIS_DIR=UP_DOWN
		ENERGY=6.00
		NOMINAL_DMAX=15.00
		SSD=850.00
		SCD=450.00
		WEDGE_ANGLE=0.00
		FIELD_INPLANE=66.40
		FIELD_CROSSPLANE=66.40
		FIELD_TYPE=RECTANGULAR
		GANTRY=0.00
		GANTRY_UPRIGHT_POSITION=0
		GANTRY_ROTATION=CW
		COLL_ANGLE=0.00
		COLL_OFFSET_INPLANE=0.00
		COLL_OFFSET_CROSSPLANE=0.00
		SCAN_DEVICE=BeamScan
		SCAN_DEVICE_SETUP=BARA_LEFT_RIGHT
		ELECTROMETER=BeamScan
		RANGE_FIELD=LOW
		RANGE_REFERENCE=MEDIUM
		DETECTOR=THIMBLE_CHAMBER
		DETECTOR_RADIUS=2.40
		DETECTOR_NAME=A28MR
		DETECTOR_SN=-
		DETECTOR_CALIBRATION=588000000.00
		DETECTOR_IS_CALIBRATED=0
		DETECTOR_REFERENCE=THIMBLE_CHAMBER
		DETECTOR_REFERENCE_RADIUS=2.75
		DETECTOR_REFERENCE_NAME=A28MR
		DETECTOR_REFERENCE_SN=â€”
		DETECTOR_REFERENCE_IS_CALIBRATED=0
		DETECTOR_REFERENCE_CALIBRATION=303000000.00
		DETECTOR_HV=300.0
		DETECTOR_REFERENCE_HV=300.0
		DETECTOR_ORIENTATION=HORIZONTAL
		FILTER=FFF
		SCAN_SPEED_PROFILE=10.00
		SCAN_PROF_SPEED_DEP=DEPTH
		SCAN_SPEED_PDD=0.00
		SCAN_PDD_SPEED_DEP=ENERGY
		DETECTOR_TYPE=A28MR
		REF_FIELD_DEPTH=220.00
		REF_FIELD_DEFINED=ISOCENTER
		REF_FIELD_INPLANE=100.00
		REF_FIELD_CROSSPLANE=100.00
		REF_SCAN_POSITIONS=-85.00;-84.00;-83.00;-82.00;-81.00;-80.00;-79.00;-78.00;-77.00;-76.00;-75.00;-74.00;-73.00;-72.00;-71.00;-70.00;-69.00;-68.00;-67.00;-66.00;-65.00;-64.00;-63.00;-62.00;-61.00;-60.00;-59.00;-58.00;-57.00;-56.00;-55.00;-54.00;-53.00;-52.00;-51.00;-50.00;-49.00;-48.00;-47.00;-46.00;-45.00;-44.00;-43.00;-42.00;-41.00;-40.00;-39.00;-38.00;-37.00;-36.00;-35.00;-34.00;-33.00;-32.00;-31.00;-30.00;-29.00;-28.00;-27.00;-26.00;-25.00;-24.00;-23.00;-22.00;-21.00;-20.00;-19.00;-18.00;-17.00;-16.00;-15.00;-14.00;-13.00;-12.00;-11.00;-10.00;-9.00;-8.00;-7.00;-6.00;-5.00;-4.00;-3.00;-2.00;-1.00;0.00;1.00;2.00;3.00;4.00;5.00;6.00;7.00;8.00;9.00;10.00;11.00;12.00;13.00;14.00;15.00;16.00;17.00;18.00;19.00;20.00;21.00;22.00;23.00;24.00;25.00;26.00;27.00;28.00;29.00;30.00;31.00;32.00;33.00;34.00;35.00;36.00;37.00;38.00;39.00;40.00;41.00;42.00;43.00;44.00;45.00;46.00;47.00;48.00;49.00;50.00;51.00;52.00;53.00;54.00;55.00;56.00;57.00;58.00;59.00;60.00;61.00;62.00;63.00;64.00;65.00;66.00;67.00;68.00;69.00;70.00;71.00;72.00;73.00;74.00;75.00;76.00;77.00;78.00;79.00;80.00;81.00;82.00;83.00;84.00;85.00;
		REF_OVERSCAN_FACTOR=1.00
		SCAN_CURVETYPE=CROSSPLANE_PROFILE
		SCAN_DEPTH=250.00
		SCAN_OFFAXIS_INPLANE=0.00
		SCAN_OFFAXIS_CROSSPLANE=0.00
		SCAN_ANGLE=0.00
		SCAN_DIAGONAL=NOT_DIAGONAL
		SCAN_DIRECTION=POSITIVE
		MEAS_MEDIUM=WATER
		MEAS_PRESET=MEAS_CONTINUOUS_REFERENCE_SCAN
		MEAS_TIME=0.100
		MEAS_UNIT=A.U.
		INCLINATION_ANGLE=0.00
		PRESSURE=1013.25
		TEMPERATURE=20.00
		NORM_TEMPERATURE=20.00
		CORRECTION_FACTOR=1.0000
		EXPECTED_MAX_DOSE_RATE=3.00
		EPOM_DEPTH_SHIFT=0.2
		EPOM_MODE=SHIFT_PROTOCOL
		CORRECTIONS=SSD_CORR;CAX_CORR;SYMMETRY_CORR;INTERPOLATED_CORR;
		BEGIN_DATA
			-64.00		8.7452E+00
			-63.50		8.8777E+00
			-63.00		9.0167E+00
			-62.50		9.1006E+00
			-62.00		9.1792E+00
			-61.50		9.3048E+00
			-61.00		9.4478E+00
			-60.50		9.5922E+00
			-60.00		9.7333E+00
			-59.50		9.8748E+00
			-59.00		9.9992E+00
			-58.50		10.154E+00
			-58.00		10.384E+00
			-57.50		10.588E+00
			-57.00		10.698E+00
			-56.50		10.815E+00
			-56.00		10.996E+00
			-55.50		11.184E+00
			-55.00		11.391E+00
			-54.50		11.596E+00
			-54.00		11.788E+00
			-53.50		11.979E+00
			-53.00		12.211E+00
			-52.50		12.476E+00
			-52.00		12.774E+00
			-51.50		13.051E+00
			-51.00		13.361E+00
			-50.50		13.743E+00
			-50.00		14.144E+00
			-49.50		14.554E+00
			-49.00		15.001E+00
			-48.50		15.610E+00
			-48.00		16.294E+00
			-47.50		17.157E+00
			-47.00		18.074E+00
			-46.50		19.340E+00
			-46.00		20.711E+00
			-45.50		22.545E+00
			-45.00		24.501E+00
			-44.50		27.044E+00
			-44.00		29.866E+00
			-43.50		33.244E+00
			-43.00		36.954E+00
			-42.50		40.911E+00
			-42.00		45.272E+00
			-41.50		49.791E+00
			-41.00		54.598E+00
			-40.50		59.503E+00
			-40.00		64.602E+00
			-39.50		69.596E+00
			-39.00		74.117E+00
			-38.50		78.546E+00
			-38.00		82.586E+00
			-37.50		86.498E+00
			-37.00		89.787E+00
			-36.50		92.970E+00
			-36.00		95.583E+00
			-35.50		97.785E+00
			-35.00		99.715E+00
			-34.50		101.25E+00
			-34.00		102.67E+00
			-33.50		103.92E+00
			-33.00		105.06E+00
			-32.50		105.90E+00
			-32.00		106.72E+00
			-31.50		107.45E+00
			-31.00		108.15E+00
			-30.50		108.73E+00
			-30.00		109.26E+00
			-29.50		109.74E+00
			-29.00		110.27E+00
			-28.50		110.63E+00
			-28.00		110.82E+00
			-27.50		111.13E+00
			-27.00		111.59E+00
			-26.50		112.00E+00
			-26.00		112.29E+00
			-25.50		112.56E+00
			-25.00		112.81E+00
			-24.50		113.07E+00
			-24.00		113.34E+00
			-23.50		113.57E+00
			-23.00		113.69E+00
			-22.50		113.81E+00
			-22.00		114.08E+00
			-21.50		114.39E+00
			-21.00		114.64E+00
			-20.50		114.82E+00
			-20.00		115.02E+00
			-19.50		115.28E+00
			-19.00		115.47E+00
			-18.50		115.64E+00
			-18.00		115.83E+00
			-17.50		115.93E+00
			-17.00		116.03E+00
			-16.50		116.28E+00
			-16.00		116.50E+00
			-15.50		116.58E+00
			-15.00		116.67E+00
			-14.50		116.86E+00
			-14.00		117.04E+00
			-13.50		117.05E+00
			-13.00		117.05E+00
			-12.50		117.20E+00
			-12.00		117.37E+00
			-11.50		117.53E+00
			-11.00		117.71E+00
			-10.50		117.83E+00
			-10.00		117.94E+00
			-9.50		118.06E+00
			-9.00		118.20E+00
			-8.50		118.33E+00
			-8.00		118.32E+00
			-7.50		118.29E+00
			-7.00		118.32E+00
			-6.50		118.41E+00
			-6.00		118.51E+00
			-5.50		118.53E+00
			-5.00		118.53E+00
			-4.50		118.69E+00
			-4.00		118.83E+00
			-3.50		118.81E+00
			-3.00		118.82E+00
			-2.50		118.93E+00
			-2.00		118.97E+00
			-1.50		119.01E+00
			-1.00		119.06E+00
			-0.50		118.94E+00
			0.00		118.84E+00
			0.50		118.94E+00
			1.00		119.06E+00
			1.50		119.01E+00
			2.00		118.97E+00
			2.50		118.93E+00
			3.00		118.82E+00
			3.50		118.81E+00
			4.00		118.83E+00
			4.50		118.69E+00
			5.00		118.53E+00
			5.50		118.53E+00
			6.00		118.51E+00
			6.50		118.41E+00
			7.00		118.32E+00
			7.50		118.29E+00
			8.00		118.32E+00
			8.50		118.33E+00
			9.00		118.20E+00
			9.50		118.06E+00
			10.00		117.94E+00
			10.50		117.83E+00
			11.00		117.71E+00
			11.50		117.53E+00
			12.00		117.37E+00
			12.50		117.20E+00
			13.00		117.05E+00
			13.50		117.05E+00
			14.00		117.04E+00
			14.50		116.86E+00
			15.00		116.67E+00
			15.50		116.58E+00
			16.00		116.50E+00
			16.50		116.28E+00
			17.00		116.03E+00
			17.50		115.93E+00
			18.00		115.83E+00
			18.50		115.64E+00
			19.00		115.47E+00
			19.50		115.28E+00
			20.00		115.02E+00
			20.50		114.82E+00
			21.00		114.64E+00
			21.50		114.39E+00
			22.00		114.08E+00
			22.50		113.81E+00
			23.00		113.69E+00
			23.50		113.57E+00
			24.00		113.34E+00
			24.50		113.07E+00
			25.00		112.81E+00
			25.50		112.56E+00
			26.00		112.29E+00
			26.50		112.00E+00
			27.00		111.59E+00
			27.50		111.13E+00
			28.00		110.82E+00
			28.50		110.63E+00
			29.00		110.27E+00
			29.50		109.74E+00
			30.00		109.26E+00
			30.50		108.73E+00
			31.00		108.15E+00
			31.50		107.45E+00
			32.00		106.72E+00
			32.50		105.90E+00
			33.00		105.06E+00
			33.50		103.92E+00
			34.00		102.67E+00
			34.50		101.25E+00
			35.00		99.715E+00
			35.50		97.785E+00
			36.00		95.583E+00
			36.50		92.970E+00
			37.00		89.787E+00
			37.50		86.498E+00
			38.00		82.586E+00
			38.50		78.546E+00
			39.00		74.117E+00
			39.50		69.596E+00
			40.00		64.602E+00
			40.50		59.503E+00
			41.00		54.598E+00
			41.50		49.791E+00
			42.00		45.272E+00
			42.50		40.911E+00
			43.00		36.954E+00
			43.50		33.244E+00
			44.00		29.866E+00
			44.50		27.044E+00
			45.00		24.501E+00
			45.50		22.545E+00
			46.00		20.711E+00
			46.50		19.340E+00
			47.00		18.074E+00
			47.50		17.157E+00
			48.00		16.294E+00
			48.50		15.610E+00
			49.00		15.001E+00
			49.50		14.554E+00
			50.00		14.144E+00
			50.50		13.743E+00
			51.00		13.361E+00
			51.50		13.051E+00
			52.00		12.774E+00
			52.50		12.476E+00
			53.00		12.211E+00
			53.50		11.979E+00
			54.00		11.788E+00
			54.50		11.596E+00
			55.00		11.391E+00
			55.50		11.184E+00
			56.00		10.996E+00
			56.50		10.815E+00
			57.00		10.698E+00
			57.50		10.588E+00
			58.00		10.384E+00
			58.50		10.154E+00
			59.00		9.9992E+00
			59.50		9.8748E+00
			60.00		9.7333E+00
			60.50		9.5922E+00
			61.00		9.4478E+00
			61.50		9.3048E+00
			62.00		9.1792E+00
			62.50		9.1006E+00
			63.00		9.0167E+00
			63.50		8.8777E+00
			64.00		8.7452E+00
		END_DATA
	END_SCAN  6
	BEGIN_SCAN  7
		TASK_NAME=tba PDD Profiles
		PROGRAM=WaterTankScans
		COMMENT=Mater Olbia
		MEAS_DATE=08-Feb-2021 09:38:10
		LINAC=MRIdian
		MODALITY=X
		ISOCENTER=900.00
		INPLANE_AXIS=Y
		CROSSPLANE_AXIS=X
		DEPTH_AXIS=Depth
		INPLANE_AXIS_DIR=TARGET_GUN
		CROSSPLANE_AXIS_DIR=LEFT_RIGHT
		DEPTH_AXIS_DIR=UP_DOWN
		ENERGY=6.00
		NOMINAL_DMAX=15.00
		SSD=850.00
		SCD=450.00
		WEDGE_ANGLE=0.00
		FIELD_INPLANE=66.40
		FIELD_CROSSPLANE=66.40
		FIELD_TYPE=RECTANGULAR
		GANTRY=0.00
		GANTRY_UPRIGHT_POSITION=0
		GANTRY_ROTATION=CW
		COLL_ANGLE=0.00
		COLL_OFFSET_INPLANE=0.00
		COLL_OFFSET_CROSSPLANE=0.00
		SCAN_DEVICE=BeamScan
		SCAN_DEVICE_SETUP=BARA_LEFT_RIGHT
		ELECTROMETER=BeamScan
		RANGE_FIELD=LOW
		RANGE_REFERENCE=MEDIUM
		DETECTOR=THIMBLE_CHAMBER
		DETECTOR_RADIUS=2.40
		DETECTOR_NAME=A28MR
		DETECTOR_SN=-
		DETECTOR_CALIBRATION=588000000.00
		DETECTOR_IS_CALIBRATED=0
		DETECTOR_REFERENCE=THIMBLE_CHAMBER
		DETECTOR_REFERENCE_RADIUS=2.75
		DETECTOR_REFERENCE_NAME=A28MR
		DETECTOR_REFERENCE_SN=â€”
		DETECTOR_REFERENCE_IS_CALIBRATED=0
		DETECTOR_REFERENCE_CALIBRATION=303000000.00
		DETECTOR_HV=300.0
		DETECTOR_REFERENCE_HV=300.0
		DETECTOR_ORIENTATION=HORIZONTAL
		FILTER=FFF
		SCAN_SPEED_PROFILE=10.00
		SCAN_PROF_SPEED_DEP=DEPTH
		SCAN_SPEED_PDD=0.00
		SCAN_PDD_SPEED_DEP=ENERGY
		DETECTOR_TYPE=A28MR
		REF_FIELD_DEPTH=220.00
		REF_FIELD_DEFINED=ISOCENTER
		REF_FIELD_INPLANE=100.00
		REF_FIELD_CROSSPLANE=100.00
		REF_SCAN_POSITIONS=-85.00;-84.00;-83.00;-82.00;-81.00;-80.00;-79.00;-78.00;-77.00;-76.00;-75.00;-74.00;-73.00;-72.00;-71.00;-70.00;-69.00;-68.00;-67.00;-66.00;-65.00;-64.00;-63.00;-62.00;-61.00;-60.00;-59.00;-58.00;-57.00;-56.00;-55.00;-54.00;-53.00;-52.00;-51.00;-50.00;-49.00;-48.00;-47.00;-46.00;-45.00;-44.00;-43.00;-42.00;-41.00;-40.00;-39.00;-38.00;-37.00;-36.00;-35.00;-34.00;-33.00;-32.00;-31.00;-30.00;-29.00;-28.00;-27.00;-26.00;-25.00;-24.00;-23.00;-22.00;-21.00;-20.00;-19.00;-18.00;-17.00;-16.00;-15.00;-14.00;-13.00;-12.00;-11.00;-10.00;-9.00;-8.00;-7.00;-6.00;-5.00;-4.00;-3.00;-2.00;-1.00;0.00;1.00;2.00;3.00;4.00;5.00;6.00;7.00;8.00;9.00;10.00;11.00;12.00;13.00;14.00;15.00;16.00;17.00;18.00;19.00;20.00;21.00;22.00;23.00;24.00;25.00;26.00;27.00;28.00;29.00;30.00;31.00;32.00;33.00;34.00;35.00;36.00;37.00;38.00;39.00;40.00;41.00;42.00;43.00;44.00;45.00;46.00;47.00;48.00;49.00;50.00;51.00;52.00;53.00;54.00;55.00;56.00;57.00;58.00;59.00;60.00;61.00;62.00;63.00;64.00;65.00;66.00;67.00;68.00;69.00;70.00;71.00;72.00;73.00;74.00;75.00;76.00;77.00;78.00;79.00;80.00;81.00;82.00;83.00;84.00;85.00;
		REF_OVERSCAN_FACTOR=1.00
		SCAN_CURVETYPE=CROSSPLANE_PROFILE
		SCAN_DEPTH=285.00
		SCAN_OFFAXIS_INPLANE=0.00
		SCAN_OFFAXIS_CROSSPLANE=0.00
		SCAN_ANGLE=0.00
		SCAN_DIAGONAL=NOT_DIAGONAL
		SCAN_DIRECTION=POSITIVE
		MEAS_MEDIUM=WATER
		MEAS_PRESET=MEAS_CONTINUOUS_REFERENCE_SCAN
		MEAS_TIME=0.100
		MEAS_UNIT=A.U.
		INCLINATION_ANGLE=0.00
		PRESSURE=1013.25
		TEMPERATURE=20.00
		NORM_TEMPERATURE=20.00
		CORRECTION_FACTOR=1.0000
		EXPECTED_MAX_DOSE_RATE=3.00
		EPOM_DEPTH_SHIFT=0.2
		EPOM_MODE=SHIFT_PROTOCOL
		CORRECTIONS=SSD_CORR;CAX_CORR;SYMMETRY_CORR;INTERPOLATED_CORR;
		BEGIN_DATA
			-64.00		7.7764E+00
			-63.50		7.8498E+00
			-63.00		7.9504E+00
			-62.50		8.0256E+00
			-62.00		8.1111E+00
			-61.50		8.2504E+00
			-61.00		8.3746E+00
			-60.50		8.4636E+00
			-60.00		8.6028E+00
			-59.50		8.7789E+00
			-59.00		8.9096E+00
			-58.50		9.0152E+00
			-58.00		9.1581E+00
			-57.50		9.3285E+00
			-57.00		9.4836E+00
			-56.50		9.6249E+00
			-56.00		9.7911E+00
			-55.50		9.9812E+00
			-55.00		10.161E+00
			-54.50		10.340E+00
			-54.00		10.528E+00
			-53.50		10.705E+00
			-53.00		10.887E+00
			-52.50		11.119E+00
			-52.00		11.399E+00
			-51.50		11.688E+00
			-51.00		12.014E+00
			-50.50		12.440E+00
			-50.00		12.902E+00
			-49.50		13.402E+00
			-49.00		13.975E+00
			-48.50		14.737E+00
			-48.00		15.653E+00
			-47.50		16.761E+00
			-47.00		18.012E+00
			-46.50		19.600E+00
			-46.00		21.432E+00
			-45.50		23.607E+00
			-45.00		26.073E+00
			-44.50		28.856E+00
			-44.00		31.914E+00
			-43.50		35.208E+00
			-43.00		38.787E+00
			-42.50		42.476E+00
			-42.00		46.274E+00
			-41.50		50.121E+00
			-41.00		53.994E+00
			-40.50		57.817E+00
			-40.00		61.508E+00
			-39.50		65.064E+00
			-39.00		68.261E+00
			-38.50		71.135E+00
			-38.00		73.601E+00
			-37.50		75.873E+00
			-37.00		77.847E+00
			-36.50		79.559E+00
			-36.00		81.105E+00
			-35.50		82.403E+00
			-35.00		83.546E+00
			-34.50		84.515E+00
			-34.00		85.434E+00
			-33.50		86.209E+00
			-33.00		86.800E+00
			-32.50		87.283E+00
			-32.00		87.792E+00
			-31.50		88.301E+00
			-31.00		88.739E+00
			-30.50		89.074E+00
			-30.00		89.359E+00
			-29.50		89.593E+00
			-29.00		89.845E+00
			-28.50		90.169E+00
			-28.00		90.540E+00
			-27.50		90.879E+00
			-27.00		91.016E+00
			-26.50		91.115E+00
			-26.00		91.304E+00
			-25.50		91.565E+00
			-25.00		91.855E+00
			-24.50		92.071E+00
			-24.00		92.195E+00
			-23.50		92.363E+00
			-23.00		92.675E+00
			-22.50		93.001E+00
			-22.00		93.162E+00
			-21.50		93.162E+00
			-21.00		93.181E+00
			-20.50		93.372E+00
			-20.00		93.619E+00
			-19.50		93.809E+00
			-19.00		93.942E+00
			-18.50		94.020E+00
			-18.00		94.138E+00
			-17.50		94.304E+00
			-17.00		94.485E+00
			-16.50		94.651E+00
			-16.00		94.752E+00
			-15.50		94.784E+00
			-15.00		94.893E+00
			-14.50		95.125E+00
			-14.00		95.330E+00
			-13.50		95.428E+00
			-13.00		95.529E+00
			-12.50		95.635E+00
			-12.00		95.632E+00
			-11.50		95.593E+00
			-11.00		95.660E+00
			-10.50		95.777E+00
			-10.00		95.897E+00
			-9.50		95.964E+00
			-9.00		96.074E+00
			-8.50		96.243E+00
			-8.00		96.298E+00
			-7.50		96.231E+00
			-7.00		96.225E+00
			-6.50		96.318E+00
			-6.00		96.379E+00
			-5.50		96.345E+00
			-5.00		96.330E+00
			-4.50		96.417E+00
			-4.00		96.425E+00
			-3.50		96.399E+00
			-3.00		96.497E+00
			-2.50		96.587E+00
			-2.00		96.602E+00
			-1.50		96.600E+00
			-1.00		96.625E+00
			-0.50		96.682E+00
			0.00		96.716E+00
			0.50		96.682E+00
			1.00		96.625E+00
			1.50		96.600E+00
			2.00		96.602E+00
			2.50		96.587E+00
			3.00		96.497E+00
			3.50		96.399E+00
			4.00		96.425E+00
			4.50		96.417E+00
			5.00		96.330E+00
			5.50		96.345E+00
			6.00		96.379E+00
			6.50		96.318E+00
			7.00		96.225E+00
			7.50		96.231E+00
			8.00		96.298E+00
			8.50		96.243E+00
			9.00		96.074E+00
			9.50		95.964E+00
			10.00		95.897E+00
			10.50		95.777E+00
			11.00		95.660E+00
			11.50		95.593E+00
			12.00		95.632E+00
			12.50		95.635E+00
			13.00		95.529E+00
			13.50		95.428E+00
			14.00		95.330E+00
			14.50		95.125E+00
			15.00		94.893E+00
			15.50		94.784E+00
			16.00		94.752E+00
			16.50		94.651E+00
			17.00		94.485E+00
			17.50		94.304E+00
			18.00		94.138E+00
			18.50		94.020E+00
			19.00		93.942E+00
			19.50		93.809E+00
			20.00		93.619E+00
			20.50		93.372E+00
			21.00		93.181E+00
			21.50		93.162E+00
			22.00		93.162E+00
			22.50		93.001E+00
			23.00		92.675E+00
			23.50		92.363E+00
			24.00		92.195E+00
			24.50		92.071E+00
			25.00		91.855E+00
			25.50		91.565E+00
			26.00		91.304E+00
			26.50		91.115E+00
			27.00		91.016E+00
			27.50		90.879E+00
			28.00		90.540E+00
			28.50		90.169E+00
			29.00		89.845E+00
			29.50		89.593E+00
			30.00		89.359E+00
			30.50		89.074E+00
			31.00		88.739E+00
			31.50		88.301E+00
			32.00		87.792E+00
			32.50		87.283E+00
			33.00		86.800E+00
			33.50		86.209E+00
			34.00		85.434E+00
			34.50		84.515E+00
			35.00		83.546E+00
			35.50		82.403E+00
			36.00		81.105E+00
			36.50		79.559E+00
			37.00		77.847E+00
			37.50		75.873E+00
			38.00		73.601E+00
			38.50		71.135E+00
			39.00		68.261E+00
			39.50		65.064E+00
			40.00		61.508E+00
			40.50		57.817E+00
			41.00		53.994E+00
			41.50		50.121E+00
			42.00		46.274E+00
			42.50		42.476E+00
			43.00		38.787E+00
			43.50		35.208E+00
			44.00		31.914E+00
			44.50		28.856E+00
			45.00		26.073E+00
			45.50		23.607E+00
			46.00		21.432E+00
			46.50		19.600E+00
			47.00		18.012E+00
			47.50		16.761E+00
			48.00		15.653E+00
			48.50		14.737E+00
			49.00		13.975E+00
			49.50		13.402E+00
			50.00		12.902E+00
			50.50		12.440E+00
			51.00		12.014E+00
			51.50		11.688E+00
			52.00		11.399E+00
			52.50		11.119E+00
			53.00		10.887E+00
			53.50		10.705E+00
			54.00		10.528E+00
			54.50		10.340E+00
			55.00		10.161E+00
			55.50		9.9812E+00
			56.00		9.7911E+00
			56.50		9.6249E+00
			57.00		9.4836E+00
			57.50		9.3285E+00
			58.00		9.1581E+00
			58.50		9.0152E+00
			59.00		8.9096E+00
			59.50		8.7789E+00
			60.00		8.6028E+00
			60.50		8.4636E+00
			61.00		8.3746E+00
			61.50		8.2504E+00
			62.00		8.1111E+00
			62.50		8.0256E+00
			63.00		7.9504E+00
			63.50		7.8498E+00
			64.00		7.7764E+00
		END_DATA
	END_SCAN  7
END_SCAN_DATA
