BEGIN_SCAN_DATA
	FORMAT=CC-Export V1.9                  
	FILE_CREATION_DATE=10-Mar-2022 18:55:13
	LAST_MODIFIED=10-Mar-2022 18:55:13
	BEGIN_SCAN  1
		TASK_NAME=tba PDD Profiles
		PROGRAM=WaterTankScans
		COMMENT=Mater Olbia-corrected for Ref
		MEAS_DATE=08-Feb-2021 09:38:10
		LINAC=MRIdian
		MODALITY=X
		ISOCENTER=900.00
		INPLANE_AXIS=Y
		CROSSPLANE_AXIS=X
		DEPTH_AXIS=Depth
		INPLANE_AXIS_DIR=TARGET_GUN
		CROSSPLANE_AXIS_DIR=LEFT_RIGHT
		DEPTH_AXIS_DIR=UP_DOWN
		ENERGY=6.00
		NOMINAL_DMAX=15.00
		SSD=850.00
		SCD=450.00
		WEDGE_ANGLE=0.00
		FIELD_INPLANE=99.60
		FIELD_CROSSPLANE=99.60
		FIELD_TYPE=RECTANGULAR
		GANTRY=0.00
		GANTRY_UPRIGHT_POSITION=0
		GANTRY_ROTATION=CW
		COLL_ANGLE=0.00
		COLL_OFFSET_INPLANE=0.00
		COLL_OFFSET_CROSSPLANE=0.00
		SCAN_DEVICE=BeamScan
		SCAN_DEVICE_SETUP=BARA_LEFT_RIGHT
		ELECTROMETER=BeamScan
		RANGE_FIELD=LOW
		RANGE_REFERENCE=MEDIUM
		DETECTOR=THIMBLE_CHAMBER
		DETECTOR_RADIUS=2.40
		DETECTOR_NAME=A28MR
		DETECTOR_SN=-
		DETECTOR_CALIBRATION=588000000.00
		DETECTOR_IS_CALIBRATED=0
		DETECTOR_REFERENCE=THIMBLE_CHAMBER
		DETECTOR_REFERENCE_RADIUS=2.75
		DETECTOR_REFERENCE_NAME=A28MR
		DETECTOR_REFERENCE_SN=Ã¢â‚¬â€
		DETECTOR_REFERENCE_IS_CALIBRATED=0
		DETECTOR_REFERENCE_CALIBRATION=303000000.00
		DETECTOR_HV=300.0
		DETECTOR_REFERENCE_HV=300.0
		DETECTOR_ORIENTATION=HORIZONTAL
		FILTER=FFF
		SCAN_SPEED_PROFILE=10.00
		SCAN_PROF_SPEED_DEP=DEPTH
		SCAN_SPEED_PDD=0.00
		SCAN_PDD_SPEED_DEP=ENERGY
		DETECTOR_TYPE=A28MR
		REF_FIELD_DEPTH=220.00
		REF_FIELD_DEFINED=ISOCENTER
		REF_FIELD_INPLANE=100.00
		REF_FIELD_CROSSPLANE=100.00
		REF_SCAN_POSITIONS=-85.00;-84.00;-83.00;-82.00;-81.00;-80.00;-79.00;-78.00;-77.00;-76.00;-75.00;-74.00;-73.00;-72.00;-71.00;-70.00;-69.00;-68.00;-67.00;-66.00;-65.00;-64.00;-63.00;-62.00;-61.00;-60.00;-59.00;-58.00;-57.00;-56.00;-55.00;-54.00;-53.00;-52.00;-51.00;-50.00;-49.00;-48.00;-47.00;-46.00;-45.00;-44.00;-43.00;-42.00;-41.00;-40.00;-39.00;-38.00;-37.00;-36.00;-35.00;-34.00;-33.00;-32.00;-31.00;-30.00;-29.00;-28.00;-27.00;-26.00;-25.00;-24.00;-23.00;-22.00;-21.00;-20.00;-19.00;-18.00;-17.00;-16.00;-15.00;-14.00;-13.00;-12.00;-11.00;-10.00;-9.00;-8.00;-7.00;-6.00;-5.00;-4.00;-3.00;-2.00;-1.00;0.00;1.00;2.00;3.00;4.00;5.00;6.00;7.00;8.00;9.00;10.00;11.00;12.00;13.00;14.00;15.00;16.00;17.00;18.00;19.00;20.00;21.00;22.00;23.00;24.00;25.00;26.00;27.00;28.00;29.00;30.00;31.00;32.00;33.00;34.00;35.00;36.00;37.00;38.00;39.00;40.00;41.00;42.00;43.00;44.00;45.00;46.00;47.00;48.00;49.00;50.00;51.00;52.00;53.00;54.00;55.00;56.00;57.00;58.00;59.00;60.00;61.00;62.00;63.00;64.00;65.00;66.00;67.00;68.00;69.00;70.00;71.00;72.00;73.00;74.00;75.00;76.00;77.00;78.00;79.00;80.00;81.00;82.00;83.00;84.00;85.00;
		REF_OVERSCAN_FACTOR=1.00
		SCAN_CURVETYPE=CROSSPLANE_PROFILE
		SCAN_DEPTH=20.00
		SCAN_OFFAXIS_INPLANE=0.00
		SCAN_OFFAXIS_CROSSPLANE=0.00
		SCAN_ANGLE=0.00
		SCAN_DIAGONAL=NOT_DIAGONAL
		SCAN_DIRECTION=POSITIVE
		MEAS_MEDIUM=WATER
		MEAS_PRESET=MEAS_CONTINUOUS_REFERENCE_SCAN
		MEAS_TIME=0.100
		MEAS_UNIT=A.U.
		INCLINATION_ANGLE=0.00
		PRESSURE=1013.25
		TEMPERATURE=20.00
		NORM_TEMPERATURE=20.00
		CORRECTION_FACTOR=1.0000
		EXPECTED_MAX_DOSE_RATE=3.00
		EPOM_DEPTH_SHIFT=0.2
		EPOM_MODE=SHIFT_PROTOCOL
		CORRECTIONS=CAX_CORR;INTERPOLATED_CORR;SYMMETRY_CORR;
		BEGIN_DATA
			-80.00		7.4287E+00
			-79.50		7.4276E+00
			-79.00		7.5480E+00
			-78.50		7.6787E+00
			-78.00		7.8093E+00
			-77.50		7.9068E+00
			-77.00		8.0051E+00
			-76.50		8.1420E+00
			-76.00		8.2769E+00
			-75.50		8.3692E+00
			-75.00		8.4643E+00
			-74.50		8.5735E+00
			-74.00		8.6823E+00
			-73.50		8.8650E+00
			-73.00		9.0489E+00
			-72.50		9.1618E+00
			-72.00		9.2707E+00
			-71.50		9.4592E+00
			-71.00		9.6519E+00
			-70.50		9.7943E+00
			-70.00		9.9354E+00
			-69.50		10.188E+00
			-69.00		10.446E+00
			-68.50		10.575E+00
			-68.00		10.705E+00
			-67.50		10.929E+00
			-67.00		11.158E+00
			-66.50		11.432E+00
			-66.00		11.705E+00
			-65.50		11.910E+00
			-65.00		12.118E+00
			-64.50		12.433E+00
			-64.00		12.752E+00
			-63.50		13.083E+00
			-63.00		13.415E+00
			-62.50		13.763E+00
			-62.00		14.114E+00
			-61.50		14.531E+00
			-61.00		14.948E+00
			-60.50		15.375E+00
			-60.00		15.812E+00
			-59.50		16.382E+00
			-59.00		16.954E+00
			-58.50		17.628E+00
			-58.00		18.318E+00
			-57.50		19.159E+00
			-57.00		20.010E+00
			-56.50		21.098E+00
			-56.00		22.215E+00
			-55.50		23.710E+00
			-55.00		25.241E+00
			-54.50		27.504E+00
			-54.00		29.872E+00
			-53.50		33.699E+00
			-53.00		37.756E+00
			-52.50		44.765E+00
			-52.00		51.981E+00
			-51.50		63.227E+00
			-51.00		74.841E+00
			-50.50		91.412E+00
			-50.00		108.32E+00
			-49.50		128.43E+00
			-49.00		148.72E+00
			-48.50		171.70E+00
			-48.00		194.76E+00
			-47.50		218.01E+00
			-47.00		241.24E+00
			-46.50		262.77E+00
			-46.00		284.05E+00
			-45.50		301.61E+00
			-45.00		318.96E+00
			-44.50		331.97E+00
			-44.00		344.74E+00
			-43.50		353.51E+00
			-43.00		361.89E+00
			-42.50		367.19E+00
			-42.00		372.36E+00
			-41.50		376.48E+00
			-41.00		380.50E+00
			-40.50		383.15E+00
			-40.00		385.68E+00
			-39.50		387.45E+00
			-39.00		389.22E+00
			-38.50		391.41E+00
			-38.00		393.58E+00
			-37.50		395.01E+00
			-37.00		396.43E+00
			-36.50		397.85E+00
			-36.00		399.23E+00
			-35.50		400.56E+00
			-35.00		401.88E+00
			-34.50		403.00E+00
			-34.00		404.15E+00
			-33.50		405.31E+00
			-33.00		406.40E+00
			-32.50		407.19E+00
			-32.00		408.01E+00
			-31.50		408.77E+00
			-31.00		409.52E+00
			-30.50		410.52E+00
			-30.00		411.51E+00
			-29.50		412.41E+00
			-29.00		413.37E+00
			-28.50		414.42E+00
			-28.00		415.42E+00
			-27.50		415.71E+00
			-27.00		415.99E+00
			-26.50		417.30E+00
			-26.00		418.67E+00
			-25.50		419.23E+00
			-25.00		419.77E+00
			-24.50		420.52E+00
			-24.00		421.27E+00
			-23.50		422.04E+00
			-23.00		422.79E+00
			-22.50		423.14E+00
			-22.00		423.48E+00
			-21.50		424.70E+00
			-21.00		425.91E+00
			-20.50		426.25E+00
			-20.00		426.59E+00
			-19.50		427.34E+00
			-19.00		428.10E+00
			-18.50		428.96E+00
			-18.00		429.84E+00
			-17.50		430.19E+00
			-17.00		430.52E+00
			-16.50		430.85E+00
			-16.00		431.19E+00
			-15.50		431.84E+00
			-15.00		432.48E+00
			-14.50		432.85E+00
			-14.00		433.23E+00
			-13.50		433.74E+00
			-13.00		434.26E+00
			-12.50		434.17E+00
			-12.00		434.07E+00
			-11.50		434.84E+00
			-11.00		435.66E+00
			-10.50		435.98E+00
			-10.00		436.29E+00
			-9.50		437.10E+00
			-9.00		437.89E+00
			-8.50		437.80E+00
			-8.00		437.69E+00
			-7.50		437.96E+00
			-7.00		438.27E+00
			-6.50		438.43E+00
			-6.00		438.57E+00
			-5.50		439.03E+00
			-5.00		439.47E+00
			-4.50		439.38E+00
			-4.00		439.27E+00
			-3.50		439.73E+00
			-3.00		440.18E+00
			-2.50		439.91E+00
			-2.00		439.69E+00
			-1.50		439.66E+00
			-1.00		439.57E+00
			-0.50		439.65E+00
			0.00		439.74E+00
			0.50		439.65E+00
			1.00		439.57E+00
			1.50		439.66E+00
			2.00		439.69E+00
			2.50		439.91E+00
			3.00		440.18E+00
			3.50		439.73E+00
			4.00		439.27E+00
			4.50		439.38E+00
			5.00		439.47E+00
			5.50		439.03E+00
			6.00		438.57E+00
			6.50		438.43E+00
			7.00		438.27E+00
			7.50		437.96E+00
			8.00		437.69E+00
			8.50		437.80E+00
			9.00		437.89E+00
			9.50		437.10E+00
			10.00		436.29E+00
			10.50		435.98E+00
			11.00		435.66E+00
			11.50		434.84E+00
			12.00		434.07E+00
			12.50		434.17E+00
			13.00		434.26E+00
			13.50		433.74E+00
			14.00		433.23E+00
			14.50		432.85E+00
			15.00		432.48E+00
			15.50		431.84E+00
			16.00		431.19E+00
			16.50		430.85E+00
			17.00		430.52E+00
			17.50		430.19E+00
			18.00		429.84E+00
			18.50		428.96E+00
			19.00		428.10E+00
			19.50		427.34E+00
			20.00		426.59E+00
			20.50		426.25E+00
			21.00		425.91E+00
			21.50		424.70E+00
			22.00		423.48E+00
			22.50		423.14E+00
			23.00		422.79E+00
			23.50		422.04E+00
			24.00		421.27E+00
			24.50		420.52E+00
			25.00		419.77E+00
			25.50		419.23E+00
			26.00		418.67E+00
			26.50		417.30E+00
			27.00		415.99E+00
			27.50		415.71E+00
			28.00		415.42E+00
			28.50		414.42E+00
			29.00		413.37E+00
			29.50		412.41E+00
			30.00		411.51E+00
			30.50		410.52E+00
			31.00		409.52E+00
			31.50		408.77E+00
			32.00		408.01E+00
			32.50		407.19E+00
			33.00		406.40E+00
			33.50		405.31E+00
			34.00		404.15E+00
			34.50		403.00E+00
			35.00		401.88E+00
			35.50		400.56E+00
			36.00		399.23E+00
			36.50		397.85E+00
			37.00		396.43E+00
			37.50		395.01E+00
			38.00		393.58E+00
			38.50		391.41E+00
			39.00		389.22E+00
			39.50		387.45E+00
			40.00		385.68E+00
			40.50		383.15E+00
			41.00		380.50E+00
			41.50		376.48E+00
			42.00		372.36E+00
			42.50		367.19E+00
			43.00		361.89E+00
			43.50		353.51E+00
			44.00		344.74E+00
			44.50		331.97E+00
			45.00		318.96E+00
			45.50		301.61E+00
			46.00		284.05E+00
			46.50		262.77E+00
			47.00		241.24E+00
			47.50		218.01E+00
			48.00		194.76E+00
			48.50		171.70E+00
			49.00		148.72E+00
			49.50		128.43E+00
			50.00		108.32E+00
			50.50		91.412E+00
			51.00		74.841E+00
			51.50		63.227E+00
			52.00		51.981E+00
			52.50		44.765E+00
			53.00		37.756E+00
			53.50		33.699E+00
			54.00		29.872E+00
			54.50		27.504E+00
			55.00		25.241E+00
			55.50		23.710E+00
			56.00		22.215E+00
			56.50		21.098E+00
			57.00		20.010E+00
			57.50		19.159E+00
			58.00		18.318E+00
			58.50		17.628E+00
			59.00		16.954E+00
			59.50		16.382E+00
			60.00		15.812E+00
			60.50		15.375E+00
			61.00		14.948E+00
			61.50		14.531E+00
			62.00		14.114E+00
			62.50		13.763E+00
			63.00		13.415E+00
			63.50		13.083E+00
			64.00		12.752E+00
			64.50		12.433E+00
			65.00		12.118E+00
			65.50		11.910E+00
			66.00		11.705E+00
			66.50		11.432E+00
			67.00		11.158E+00
			67.50		10.929E+00
			68.00		10.705E+00
			68.50		10.575E+00
			69.00		10.446E+00
			69.50		10.188E+00
			70.00		9.9354E+00
			70.50		9.7943E+00
			71.00		9.6519E+00
			71.50		9.4592E+00
			72.00		9.2707E+00
			72.50		9.1618E+00
			73.00		9.0489E+00
			73.50		8.8650E+00
			74.00		8.6823E+00
			74.50		8.5735E+00
			75.00		8.4643E+00
			75.50		8.3692E+00
			76.00		8.2769E+00
			76.50		8.1420E+00
			77.00		8.0051E+00
			77.50		7.9068E+00
			78.00		7.8093E+00
			78.50		7.6787E+00
			79.00		7.5480E+00
			79.50		7.4276E+00
			80.00		7.4287E+00
		END_DATA
	END_SCAN  1
	BEGIN_SCAN  2
		TASK_NAME=tba PDD Profiles
		PROGRAM=WaterTankScans
		COMMENT=Mater Olbia
		MEAS_DATE=10-Mar-2022 18:52:04
		LINAC=MRIdian
		MODALITY=X
		ISOCENTER=900.00
		INPLANE_AXIS=Y
		CROSSPLANE_AXIS=X
		DEPTH_AXIS=Depth
		INPLANE_AXIS_DIR=TARGET_GUN
		CROSSPLANE_AXIS_DIR=LEFT_RIGHT
		DEPTH_AXIS_DIR=UP_DOWN
		ENERGY=6.00
		NOMINAL_DMAX=15.00
		SSD=850.00
		SCD=450.00
		WEDGE_ANGLE=0.00
		FIELD_INPLANE=99.60
		FIELD_CROSSPLANE=99.60
		FIELD_TYPE=RECTANGULAR
		GANTRY=0.00
		GANTRY_UPRIGHT_POSITION=0
		GANTRY_ROTATION=CW
		COLL_ANGLE=0.00
		COLL_OFFSET_INPLANE=0.00
		COLL_OFFSET_CROSSPLANE=0.00
		SCAN_DEVICE=BeamScan
		SCAN_DEVICE_SETUP=BARA_LEFT_RIGHT
		ELECTROMETER=BeamScan
		RANGE_FIELD=LOW
		RANGE_REFERENCE=MEDIUM
		DETECTOR=THIMBLE_CHAMBER
		DETECTOR_RADIUS=2.40
		DETECTOR_NAME=A28MR
		DETECTOR_SN=-
		DETECTOR_CALIBRATION=588000000.00
		DETECTOR_IS_CALIBRATED=0
		DETECTOR_REFERENCE=THIMBLE_CHAMBER
		DETECTOR_REFERENCE_RADIUS=2.75
		DETECTOR_REFERENCE_NAME=A28MR
		DETECTOR_REFERENCE_SN=Ã¢â‚¬â€
		DETECTOR_REFERENCE_IS_CALIBRATED=0
		DETECTOR_REFERENCE_CALIBRATION=303000000.00
		DETECTOR_HV=300.0
		DETECTOR_REFERENCE_HV=300.0
		DETECTOR_ORIENTATION=HORIZONTAL
		FILTER=FFF
		SCAN_SPEED_PROFILE=10.00
		SCAN_PROF_SPEED_DEP=DEPTH
		SCAN_SPEED_PDD=0.00
		SCAN_PDD_SPEED_DEP=ENERGY
		DETECTOR_TYPE=A28MR
		REF_FIELD_DEPTH=220.00
		REF_FIELD_DEFINED=ISOCENTER
		REF_FIELD_INPLANE=100.00
		REF_FIELD_CROSSPLANE=100.00
		REF_SCAN_POSITIONS=-85.00;-84.00;-83.00;-82.00;-81.00;-80.00;-79.00;-78.00;-77.00;-76.00;-75.00;-74.00;-73.00;-72.00;-71.00;-70.00;-69.00;-68.00;-67.00;-66.00;-65.00;-64.00;-63.00;-62.00;-61.00;-60.00;-59.00;-58.00;-57.00;-56.00;-55.00;-54.00;-53.00;-52.00;-51.00;-50.00;-49.00;-48.00;-47.00;-46.00;-45.00;-44.00;-43.00;-42.00;-41.00;-40.00;-39.00;-38.00;-37.00;-36.00;-35.00;-34.00;-33.00;-32.00;-31.00;-30.00;-29.00;-28.00;-27.00;-26.00;-25.00;-24.00;-23.00;-22.00;-21.00;-20.00;-19.00;-18.00;-17.00;-16.00;-15.00;-14.00;-13.00;-12.00;-11.00;-10.00;-9.00;-8.00;-7.00;-6.00;-5.00;-4.00;-3.00;-2.00;-1.00;0.00;1.00;2.00;3.00;4.00;5.00;6.00;7.00;8.00;9.00;10.00;11.00;12.00;13.00;14.00;15.00;16.00;17.00;18.00;19.00;20.00;21.00;22.00;23.00;24.00;25.00;26.00;27.00;28.00;29.00;30.00;31.00;32.00;33.00;34.00;35.00;36.00;37.00;38.00;39.00;40.00;41.00;42.00;43.00;44.00;45.00;46.00;47.00;48.00;49.00;50.00;51.00;52.00;53.00;54.00;55.00;56.00;57.00;58.00;59.00;60.00;61.00;62.00;63.00;64.00;65.00;66.00;67.00;68.00;69.00;70.00;71.00;72.00;73.00;74.00;75.00;76.00;77.00;78.00;79.00;80.00;81.00;82.00;83.00;84.00;85.00;
		REF_OVERSCAN_FACTOR=1.00
		SCAN_CURVETYPE=CROSSPLANE_PROFILE
		SCAN_DEPTH=55.00
		SCAN_OFFAXIS_INPLANE=0.00
		SCAN_OFFAXIS_CROSSPLANE=0.00
		SCAN_ANGLE=0.00
		SCAN_DIAGONAL=NOT_DIAGONAL
		SCAN_DIRECTION=POSITIVE
		MEAS_MEDIUM=WATER
		MEAS_PRESET=MEAS_CONTINUOUS_REFERENCE_SCAN
		MEAS_TIME=0.100
		MEAS_UNIT=A.U.
		INCLINATION_ANGLE=0.00
		PRESSURE=1013.25
		TEMPERATURE=20.00
		NORM_TEMPERATURE=20.00
		CORRECTION_FACTOR=1.0000
		EXPECTED_MAX_DOSE_RATE=3.00
		EPOM_DEPTH_SHIFT=0.2
		EPOM_MODE=SHIFT_PROTOCOL
		CORRECTIONS=SSD_CORR;CAX_CORR;ADD_CURVES_CORR;MODIFIED_CORR;INTERPOLATED_CORR;SYMMETRY_CORR;
		BEGIN_DATA
			-80.00		11.193E+00
			-79.50		11.241E+00
			-79.00		11.393E+00
			-78.50		11.621E+00
			-78.00		11.793E+00
			-77.50		11.993E+00
			-77.00		12.193E+00
			-76.50		12.370E+00
			-76.00		12.622E+00
			-75.50		12.884E+00
			-75.00		13.017E+00
			-74.50		13.253E+00
			-74.00		13.420E+00
			-73.50		13.630E+00
			-73.00		13.935E+00
			-72.50		14.115E+00
			-72.00		14.497E+00
			-71.50		14.802E+00
			-71.00		14.991E+00
			-70.50		15.184E+00
			-70.00		15.486E+00
			-69.50		15.839E+00
			-69.00		16.214E+00
			-68.50		16.621E+00
			-68.00		16.938E+00
			-67.50		17.265E+00
			-67.00		17.790E+00
			-66.50		18.128E+00
			-66.00		18.572E+00
			-65.50		19.033E+00
			-65.00		19.392E+00
			-64.50		19.797E+00
			-64.00		20.382E+00
			-63.50		20.884E+00
			-63.00		21.231E+00
			-62.50		21.922E+00
			-62.00		22.560E+00
			-61.50		23.246E+00
			-61.00		23.966E+00
			-60.50		24.810E+00
			-60.00		25.591E+00
			-59.50		26.563E+00
			-59.00		27.601E+00
			-58.50		28.896E+00
			-58.00		30.141E+00
			-57.50		31.741E+00
			-57.00		33.452E+00
			-56.50		35.692E+00
			-56.00		38.309E+00
			-55.50		42.079E+00
			-55.00		46.217E+00
			-54.50		52.022E+00
			-54.00		59.141E+00
			-53.50		68.066E+00
			-53.00		79.127E+00
			-52.50		92.095E+00
			-52.00		106.53E+00
			-51.50		122.18E+00
			-51.00		139.73E+00
			-50.50		157.86E+00
			-50.00		176.51E+00
			-49.50		195.35E+00
			-49.00		214.19E+00
			-48.50		232.33E+00
			-48.00		249.63E+00
			-47.50		265.26E+00
			-47.00		279.98E+00
			-46.50		292.11E+00
			-46.00		303.61E+00
			-45.50		311.89E+00
			-45.00		319.80E+00
			-44.50		325.11E+00
			-44.00		330.18E+00
			-43.50		334.33E+00
			-43.00		338.08E+00
			-42.50		340.84E+00
			-42.00		343.52E+00
			-41.50		345.80E+00
			-41.00		347.97E+00
			-40.50		349.85E+00
			-40.00		351.48E+00
			-39.50		352.95E+00
			-39.00		354.38E+00
			-38.50		355.86E+00
			-38.00		357.36E+00
			-37.50		358.70E+00
			-37.00		359.93E+00
			-36.50		360.84E+00
			-36.00		361.85E+00
			-35.50		362.97E+00
			-35.00		363.99E+00
			-34.50		365.15E+00
			-34.00		366.33E+00
			-33.50		367.40E+00
			-33.00		368.40E+00
			-32.50		369.49E+00
			-32.00		370.36E+00
			-31.50		371.19E+00
			-31.00		372.26E+00
			-30.50		373.15E+00
			-30.00		373.93E+00
			-29.50		374.67E+00
			-29.00		375.53E+00
			-28.50		376.33E+00
			-28.00		377.16E+00
			-27.50		378.03E+00
			-27.00		378.92E+00
			-26.50		379.60E+00
			-26.00		380.02E+00
			-25.50		380.53E+00
			-25.00		381.34E+00
			-24.50		382.17E+00
			-24.00		382.80E+00
			-23.50		383.48E+00
			-23.00		384.43E+00
			-22.50		385.07E+00
			-22.00		385.43E+00
			-21.50		385.84E+00
			-21.00		386.36E+00
			-20.50		387.34E+00
			-20.00		388.26E+00
			-19.50		388.65E+00
			-19.00		388.96E+00
			-18.50		389.65E+00
			-18.00		390.23E+00
			-17.50		390.63E+00
			-17.00		390.93E+00
			-16.50		391.33E+00
			-16.00		391.92E+00
			-15.50		392.39E+00
			-15.00		392.94E+00
			-14.50		393.45E+00
			-14.00		393.71E+00
			-13.50		393.97E+00
			-13.00		394.20E+00
			-12.50		394.54E+00
			-12.00		395.01E+00
			-11.50		395.60E+00
			-11.00		395.79E+00
			-10.50		396.20E+00
			-10.00		396.52E+00
			-9.50		396.80E+00
			-9.00		397.01E+00
			-8.50		397.42E+00
			-8.00		397.78E+00
			-7.50		397.97E+00
			-7.00		398.16E+00
			-6.50		398.24E+00
			-6.00		398.48E+00
			-5.50		398.89E+00
			-5.00		398.98E+00
			-4.50		399.03E+00
			-4.00		399.06E+00
			-3.50		399.04E+00
			-3.00		399.16E+00
			-2.50		399.43E+00
			-2.00		399.64E+00
			-1.50		399.76E+00
			-1.00		399.77E+00
			-0.50		399.95E+00
			0.00		399.84E+00
			0.50		399.95E+00
			1.00		399.77E+00
			1.50		399.76E+00
			2.00		399.64E+00
			2.50		399.43E+00
			3.00		399.16E+00
			3.50		399.04E+00
			4.00		399.06E+00
			4.50		399.03E+00
			5.00		398.98E+00
			5.50		398.89E+00
			6.00		398.48E+00
			6.50		398.24E+00
			7.00		398.16E+00
			7.50		397.97E+00
			8.00		397.78E+00
			8.50		397.42E+00
			9.00		397.01E+00
			9.50		396.80E+00
			10.00		396.52E+00
			10.50		396.20E+00
			11.00		395.79E+00
			11.50		395.60E+00
			12.00		395.01E+00
			12.50		394.54E+00
			13.00		394.20E+00
			13.50		393.97E+00
			14.00		393.71E+00
			14.50		393.45E+00
			15.00		392.94E+00
			15.50		392.39E+00
			16.00		391.92E+00
			16.50		391.33E+00
			17.00		390.93E+00
			17.50		390.63E+00
			18.00		390.23E+00
			18.50		389.65E+00
			19.00		388.96E+00
			19.50		388.65E+00
			20.00		388.26E+00
			20.50		387.34E+00
			21.00		386.36E+00
			21.50		385.84E+00
			22.00		385.43E+00
			22.50		385.07E+00
			23.00		384.43E+00
			23.50		383.48E+00
			24.00		382.80E+00
			24.50		382.17E+00
			25.00		381.34E+00
			25.50		380.53E+00
			26.00		380.02E+00
			26.50		379.60E+00
			27.00		378.92E+00
			27.50		378.03E+00
			28.00		377.16E+00
			28.50		376.33E+00
			29.00		375.53E+00
			29.50		374.67E+00
			30.00		373.93E+00
			30.50		373.15E+00
			31.00		372.26E+00
			31.50		371.19E+00
			32.00		370.36E+00
			32.50		369.49E+00
			33.00		368.40E+00
			33.50		367.40E+00
			34.00		366.33E+00
			34.50		365.15E+00
			35.00		363.99E+00
			35.50		362.97E+00
			36.00		361.85E+00
			36.50		360.84E+00
			37.00		359.93E+00
			37.50		358.70E+00
			38.00		357.36E+00
			38.50		355.86E+00
			39.00		354.38E+00
			39.50		352.95E+00
			40.00		351.48E+00
			40.50		349.85E+00
			41.00		347.97E+00
			41.50		345.80E+00
			42.00		343.52E+00
			42.50		340.84E+00
			43.00		338.08E+00
			43.50		334.33E+00
			44.00		330.18E+00
			44.50		325.11E+00
			45.00		319.80E+00
			45.50		311.89E+00
			46.00		303.61E+00
			46.50		292.11E+00
			47.00		279.98E+00
			47.50		265.26E+00
			48.00		249.63E+00
			48.50		232.33E+00
			49.00		214.19E+00
			49.50		195.35E+00
			50.00		176.51E+00
			50.50		157.86E+00
			51.00		139.73E+00
			51.50		122.18E+00
			52.00		106.53E+00
			52.50		92.095E+00
			53.00		79.127E+00
			53.50		68.066E+00
			54.00		59.141E+00
			54.50		52.022E+00
			55.00		46.217E+00
			55.50		42.079E+00
			56.00		38.309E+00
			56.50		35.692E+00
			57.00		33.452E+00
			57.50		31.741E+00
			58.00		30.141E+00
			58.50		28.896E+00
			59.00		27.601E+00
			59.50		26.563E+00
			60.00		25.591E+00
			60.50		24.810E+00
			61.00		23.966E+00
			61.50		23.246E+00
			62.00		22.560E+00
			62.50		21.922E+00
			63.00		21.231E+00
			63.50		20.884E+00
			64.00		20.382E+00
			64.50		19.797E+00
			65.00		19.392E+00
			65.50		19.033E+00
			66.00		18.572E+00
			66.50		18.128E+00
			67.00		17.790E+00
			67.50		17.265E+00
			68.00		16.938E+00
			68.50		16.621E+00
			69.00		16.214E+00
			69.50		15.839E+00
			70.00		15.486E+00
			70.50		15.184E+00
			71.00		14.991E+00
			71.50		14.802E+00
			72.00		14.497E+00
			72.50		14.115E+00
			73.00		13.935E+00
			73.50		13.630E+00
			74.00		13.420E+00
			74.50		13.253E+00
			75.00		13.017E+00
			75.50		12.884E+00
			76.00		12.622E+00
			76.50		12.370E+00
			77.00		12.193E+00
			77.50		11.993E+00
			78.00		11.793E+00
			78.50		11.621E+00
			79.00		11.393E+00
			79.50		11.241E+00
			80.00		11.193E+00
		END_DATA
	END_SCAN  2
	BEGIN_SCAN  3
		TASK_NAME=tba PDD Profiles
		PROGRAM=WaterTankScans
		COMMENT=Mater Olbia
		MEAS_DATE=10-Mar-2022 18:52:22
		LINAC=MRIdian
		MODALITY=X
		ISOCENTER=900.00
		INPLANE_AXIS=Y
		CROSSPLANE_AXIS=X
		DEPTH_AXIS=Depth
		INPLANE_AXIS_DIR=TARGET_GUN
		CROSSPLANE_AXIS_DIR=LEFT_RIGHT
		DEPTH_AXIS_DIR=UP_DOWN
		ENERGY=6.00
		NOMINAL_DMAX=15.00
		SSD=850.00
		SCD=450.00
		WEDGE_ANGLE=0.00
		FIELD_INPLANE=99.60
		FIELD_CROSSPLANE=99.60
		FIELD_TYPE=RECTANGULAR
		GANTRY=0.00
		GANTRY_UPRIGHT_POSITION=0
		GANTRY_ROTATION=CW
		COLL_ANGLE=0.00
		COLL_OFFSET_INPLANE=0.00
		COLL_OFFSET_CROSSPLANE=0.00
		SCAN_DEVICE=BeamScan
		SCAN_DEVICE_SETUP=BARA_LEFT_RIGHT
		ELECTROMETER=BeamScan
		RANGE_FIELD=LOW
		RANGE_REFERENCE=MEDIUM
		DETECTOR=THIMBLE_CHAMBER
		DETECTOR_RADIUS=2.40
		DETECTOR_NAME=A28MR
		DETECTOR_SN=-
		DETECTOR_CALIBRATION=588000000.00
		DETECTOR_IS_CALIBRATED=0
		DETECTOR_REFERENCE=THIMBLE_CHAMBER
		DETECTOR_REFERENCE_RADIUS=2.75
		DETECTOR_REFERENCE_NAME=A28MR
		DETECTOR_REFERENCE_SN=Ã¢â‚¬â€
		DETECTOR_REFERENCE_IS_CALIBRATED=0
		DETECTOR_REFERENCE_CALIBRATION=303000000.00
		DETECTOR_HV=300.0
		DETECTOR_REFERENCE_HV=300.0
		DETECTOR_ORIENTATION=HORIZONTAL
		FILTER=FFF
		SCAN_SPEED_PROFILE=10.00
		SCAN_PROF_SPEED_DEP=DEPTH
		SCAN_SPEED_PDD=0.00
		SCAN_PDD_SPEED_DEP=ENERGY
		DETECTOR_TYPE=A28MR
		REF_FIELD_DEPTH=220.00
		REF_FIELD_DEFINED=ISOCENTER
		REF_FIELD_INPLANE=100.00
		REF_FIELD_CROSSPLANE=100.00
		REF_SCAN_POSITIONS=-85.00;-84.00;-83.00;-82.00;-81.00;-80.00;-79.00;-78.00;-77.00;-76.00;-75.00;-74.00;-73.00;-72.00;-71.00;-70.00;-69.00;-68.00;-67.00;-66.00;-65.00;-64.00;-63.00;-62.00;-61.00;-60.00;-59.00;-58.00;-57.00;-56.00;-55.00;-54.00;-53.00;-52.00;-51.00;-50.00;-49.00;-48.00;-47.00;-46.00;-45.00;-44.00;-43.00;-42.00;-41.00;-40.00;-39.00;-38.00;-37.00;-36.00;-35.00;-34.00;-33.00;-32.00;-31.00;-30.00;-29.00;-28.00;-27.00;-26.00;-25.00;-24.00;-23.00;-22.00;-21.00;-20.00;-19.00;-18.00;-17.00;-16.00;-15.00;-14.00;-13.00;-12.00;-11.00;-10.00;-9.00;-8.00;-7.00;-6.00;-5.00;-4.00;-3.00;-2.00;-1.00;0.00;1.00;2.00;3.00;4.00;5.00;6.00;7.00;8.00;9.00;10.00;11.00;12.00;13.00;14.00;15.00;16.00;17.00;18.00;19.00;20.00;21.00;22.00;23.00;24.00;25.00;26.00;27.00;28.00;29.00;30.00;31.00;32.00;33.00;34.00;35.00;36.00;37.00;38.00;39.00;40.00;41.00;42.00;43.00;44.00;45.00;46.00;47.00;48.00;49.00;50.00;51.00;52.00;53.00;54.00;55.00;56.00;57.00;58.00;59.00;60.00;61.00;62.00;63.00;64.00;65.00;66.00;67.00;68.00;69.00;70.00;71.00;72.00;73.00;74.00;75.00;76.00;77.00;78.00;79.00;80.00;81.00;82.00;83.00;84.00;85.00;
		REF_OVERSCAN_FACTOR=1.00
		SCAN_CURVETYPE=CROSSPLANE_PROFILE
		SCAN_DEPTH=100.00
		SCAN_OFFAXIS_INPLANE=0.00
		SCAN_OFFAXIS_CROSSPLANE=0.00
		SCAN_ANGLE=0.00
		SCAN_DIAGONAL=NOT_DIAGONAL
		SCAN_DIRECTION=POSITIVE
		MEAS_MEDIUM=WATER
		MEAS_PRESET=MEAS_CONTINUOUS_REFERENCE_SCAN
		MEAS_TIME=0.100
		MEAS_UNIT=A.U.
		INCLINATION_ANGLE=0.00
		PRESSURE=1013.25
		TEMPERATURE=20.00
		NORM_TEMPERATURE=20.00
		CORRECTION_FACTOR=1.0000
		EXPECTED_MAX_DOSE_RATE=3.00
		EPOM_DEPTH_SHIFT=0.2
		EPOM_MODE=SHIFT_PROTOCOL
		CORRECTIONS=SSD_CORR;CAX_CORR;ADD_CURVES_CORR;MODIFIED_CORR;INTERPOLATED_CORR;SYMMETRY_CORR;
		BEGIN_DATA
			-80.00		14.330E+00
			-79.50		14.469E+00
			-79.00		14.697E+00
			-78.50		14.819E+00
			-78.00		14.977E+00
			-77.50		15.236E+00
			-77.00		15.531E+00
			-76.50		15.818E+00
			-76.00		16.128E+00
			-75.50		16.377E+00
			-75.00		16.623E+00
			-74.50		16.929E+00
			-74.00		17.223E+00
			-73.50		17.462E+00
			-73.00		17.762E+00
			-72.50		18.156E+00
			-72.00		18.467E+00
			-71.50		18.757E+00
			-71.00		19.057E+00
			-70.50		19.413E+00
			-70.00		19.783E+00
			-69.50		20.106E+00
			-69.00		20.502E+00
			-68.50		20.904E+00
			-68.00		21.355E+00
			-67.50		21.795E+00
			-67.00		22.198E+00
			-66.50		22.625E+00
			-66.00		23.147E+00
			-65.50		23.654E+00
			-65.00		24.173E+00
			-64.50		24.730E+00
			-64.00		25.385E+00
			-63.50		26.024E+00
			-63.00		26.691E+00
			-62.50		27.434E+00
			-62.00		28.234E+00
			-61.50		29.056E+00
			-61.00		30.076E+00
			-60.50		31.029E+00
			-60.00		32.428E+00
			-59.50		33.873E+00
			-59.00		35.595E+00
			-58.50		37.674E+00
			-58.00		40.558E+00
			-57.50		43.826E+00
			-57.00		48.074E+00
			-56.50		53.400E+00
			-56.00		59.895E+00
			-55.50		67.845E+00
			-55.00		76.676E+00
			-54.50		87.076E+00
			-54.00		98.150E+00
			-53.50		110.38E+00
			-53.00		123.01E+00
			-52.50		136.02E+00
			-52.00		149.32E+00
			-51.50		162.39E+00
			-51.00		174.99E+00
			-50.50		187.15E+00
			-50.00		198.48E+00
			-49.50		208.97E+00
			-49.00		217.90E+00
			-48.50		226.05E+00
			-48.00		232.32E+00
			-47.50		238.36E+00
			-47.00		242.70E+00
			-46.50		246.75E+00
			-46.00		249.84E+00
			-45.50		252.59E+00
			-45.00		255.09E+00
			-44.50		257.39E+00
			-44.00		259.23E+00
			-43.50		260.79E+00
			-43.00		262.32E+00
			-42.50		263.78E+00
			-42.00		265.19E+00
			-41.50		266.48E+00
			-41.00		267.74E+00
			-40.50		268.53E+00
			-40.00		269.41E+00
			-39.50		270.27E+00
			-39.00		271.24E+00
			-38.50		272.17E+00
			-38.00		273.08E+00
			-37.50		274.15E+00
			-37.00		275.10E+00
			-36.50		275.92E+00
			-36.00		276.75E+00
			-35.50		277.64E+00
			-35.00		278.40E+00
			-34.50		279.17E+00
			-34.00		280.03E+00
			-33.50		280.77E+00
			-33.00		281.36E+00
			-32.50		281.91E+00
			-32.00		282.83E+00
			-31.50		283.72E+00
			-31.00		284.42E+00
			-30.50		285.09E+00
			-30.00		285.64E+00
			-29.50		286.10E+00
			-29.00		286.66E+00
			-28.50		287.37E+00
			-28.00		287.91E+00
			-27.50		288.40E+00
			-27.00		288.73E+00
			-26.50		289.21E+00
			-26.00		289.72E+00
			-25.50		290.47E+00
			-25.00		291.12E+00
			-24.50		291.70E+00
			-24.00		292.39E+00
			-23.50		292.96E+00
			-23.00		293.55E+00
			-22.50		294.04E+00
			-22.00		294.28E+00
			-21.50		294.64E+00
			-21.00		295.21E+00
			-20.50		295.75E+00
			-20.00		296.15E+00
			-19.50		296.48E+00
			-19.00		296.82E+00
			-18.50		297.22E+00
			-18.00		297.75E+00
			-17.50		298.20E+00
			-17.00		298.50E+00
			-16.50		298.79E+00
			-16.00		299.07E+00
			-15.50		299.45E+00
			-15.00		299.90E+00
			-14.50		300.10E+00
			-14.00		300.35E+00
			-13.50		300.59E+00
			-13.00		300.77E+00
			-12.50		300.96E+00
			-12.00		301.31E+00
			-11.50		301.74E+00
			-11.00		302.23E+00
			-10.50		302.53E+00
			-10.00		302.67E+00
			-9.50		302.85E+00
			-9.00		303.02E+00
			-8.50		303.15E+00
			-8.00		303.39E+00
			-7.50		303.73E+00
			-7.00		303.90E+00
			-6.50		303.98E+00
			-6.00		303.98E+00
			-5.50		304.17E+00
			-5.00		304.37E+00
			-4.50		304.44E+00
			-4.00		304.61E+00
			-3.50		304.84E+00
			-3.00		304.98E+00
			-2.50		305.09E+00
			-2.00		305.02E+00
			-1.50		304.93E+00
			-1.00		305.05E+00
			-0.50		305.01E+00
			0.00		304.92E+00
			0.50		305.01E+00
			1.00		305.05E+00
			1.50		304.93E+00
			2.00		305.02E+00
			2.50		305.09E+00
			3.00		304.98E+00
			3.50		304.84E+00
			4.00		304.61E+00
			4.50		304.44E+00
			5.00		304.37E+00
			5.50		304.17E+00
			6.00		303.98E+00
			6.50		303.98E+00
			7.00		303.90E+00
			7.50		303.73E+00
			8.00		303.39E+00
			8.50		303.15E+00
			9.00		303.02E+00
			9.50		302.85E+00
			10.00		302.67E+00
			10.50		302.53E+00
			11.00		302.23E+00
			11.50		301.74E+00
			12.00		301.31E+00
			12.50		300.96E+00
			13.00		300.77E+00
			13.50		300.59E+00
			14.00		300.35E+00
			14.50		300.10E+00
			15.00		299.90E+00
			15.50		299.45E+00
			16.00		299.07E+00
			16.50		298.79E+00
			17.00		298.50E+00
			17.50		298.20E+00
			18.00		297.75E+00
			18.50		297.22E+00
			19.00		296.82E+00
			19.50		296.48E+00
			20.00		296.15E+00
			20.50		295.75E+00
			21.00		295.21E+00
			21.50		294.64E+00
			22.00		294.28E+00
			22.50		294.04E+00
			23.00		293.55E+00
			23.50		292.96E+00
			24.00		292.39E+00
			24.50		291.70E+00
			25.00		291.12E+00
			25.50		290.47E+00
			26.00		289.72E+00
			26.50		289.21E+00
			27.00		288.73E+00
			27.50		288.40E+00
			28.00		287.91E+00
			28.50		287.37E+00
			29.00		286.66E+00
			29.50		286.10E+00
			30.00		285.64E+00
			30.50		285.09E+00
			31.00		284.42E+00
			31.50		283.72E+00
			32.00		282.83E+00
			32.50		281.91E+00
			33.00		281.36E+00
			33.50		280.77E+00
			34.00		280.03E+00
			34.50		279.17E+00
			35.00		278.40E+00
			35.50		277.64E+00
			36.00		276.75E+00
			36.50		275.92E+00
			37.00		275.10E+00
			37.50		274.15E+00
			38.00		273.08E+00
			38.50		272.17E+00
			39.00		271.24E+00
			39.50		270.27E+00
			40.00		269.41E+00
			40.50		268.53E+00
			41.00		267.74E+00
			41.50		266.48E+00
			42.00		265.19E+00
			42.50		263.78E+00
			43.00		262.32E+00
			43.50		260.79E+00
			44.00		259.23E+00
			44.50		257.39E+00
			45.00		255.09E+00
			45.50		252.59E+00
			46.00		249.84E+00
			46.50		246.75E+00
			47.00		242.70E+00
			47.50		238.36E+00
			48.00		232.32E+00
			48.50		226.05E+00
			49.00		217.90E+00
			49.50		208.97E+00
			50.00		198.48E+00
			50.50		187.15E+00
			51.00		174.99E+00
			51.50		162.39E+00
			52.00		149.32E+00
			52.50		136.02E+00
			53.00		123.01E+00
			53.50		110.38E+00
			54.00		98.150E+00
			54.50		87.076E+00
			55.00		76.676E+00
			55.50		67.845E+00
			56.00		59.895E+00
			56.50		53.400E+00
			57.00		48.074E+00
			57.50		43.826E+00
			58.00		40.558E+00
			58.50		37.674E+00
			59.00		35.595E+00
			59.50		33.873E+00
			60.00		32.428E+00
			60.50		31.029E+00
			61.00		30.076E+00
			61.50		29.056E+00
			62.00		28.234E+00
			62.50		27.434E+00
			63.00		26.691E+00
			63.50		26.024E+00
			64.00		25.385E+00
			64.50		24.730E+00
			65.00		24.173E+00
			65.50		23.654E+00
			66.00		23.147E+00
			66.50		22.625E+00
			67.00		22.198E+00
			67.50		21.795E+00
			68.00		21.355E+00
			68.50		20.904E+00
			69.00		20.502E+00
			69.50		20.106E+00
			70.00		19.783E+00
			70.50		19.413E+00
			71.00		19.057E+00
			71.50		18.757E+00
			72.00		18.467E+00
			72.50		18.156E+00
			73.00		17.762E+00
			73.50		17.462E+00
			74.00		17.223E+00
			74.50		16.929E+00
			75.00		16.623E+00
			75.50		16.377E+00
			76.00		16.128E+00
			76.50		15.818E+00
			77.00		15.531E+00
			77.50		15.236E+00
			78.00		14.977E+00
			78.50		14.819E+00
			79.00		14.697E+00
			79.50		14.469E+00
			80.00		14.330E+00
		END_DATA
	END_SCAN  3
	BEGIN_SCAN  4
		TASK_NAME=tba PDD Profiles
		PROGRAM=WaterTankScans
		COMMENT=Mater Olbia
		MEAS_DATE=08-Feb-2021 09:38:10
		LINAC=MRIdian
		MODALITY=X
		ISOCENTER=900.00
		INPLANE_AXIS=Y
		CROSSPLANE_AXIS=X
		DEPTH_AXIS=Depth
		INPLANE_AXIS_DIR=TARGET_GUN
		CROSSPLANE_AXIS_DIR=LEFT_RIGHT
		DEPTH_AXIS_DIR=UP_DOWN
		ENERGY=6.00
		NOMINAL_DMAX=15.00
		SSD=850.00
		SCD=450.00
		WEDGE_ANGLE=0.00
		FIELD_INPLANE=99.60
		FIELD_CROSSPLANE=99.60
		FIELD_TYPE=RECTANGULAR
		GANTRY=0.00
		GANTRY_UPRIGHT_POSITION=0
		GANTRY_ROTATION=CW
		COLL_ANGLE=0.00
		COLL_OFFSET_INPLANE=0.00
		COLL_OFFSET_CROSSPLANE=0.00
		SCAN_DEVICE=BeamScan
		SCAN_DEVICE_SETUP=BARA_LEFT_RIGHT
		ELECTROMETER=BeamScan
		RANGE_FIELD=LOW
		RANGE_REFERENCE=MEDIUM
		DETECTOR=THIMBLE_CHAMBER
		DETECTOR_RADIUS=2.40
		DETECTOR_NAME=A28MR
		DETECTOR_SN=-
		DETECTOR_CALIBRATION=588000000.00
		DETECTOR_IS_CALIBRATED=0
		DETECTOR_REFERENCE=THIMBLE_CHAMBER
		DETECTOR_REFERENCE_RADIUS=2.75
		DETECTOR_REFERENCE_NAME=A28MR
		DETECTOR_REFERENCE_SN=Ã¢â‚¬â€
		DETECTOR_REFERENCE_IS_CALIBRATED=0
		DETECTOR_REFERENCE_CALIBRATION=303000000.00
		DETECTOR_HV=300.0
		DETECTOR_REFERENCE_HV=300.0
		DETECTOR_ORIENTATION=HORIZONTAL
		FILTER=FFF
		SCAN_SPEED_PROFILE=10.00
		SCAN_PROF_SPEED_DEP=DEPTH
		SCAN_SPEED_PDD=0.00
		SCAN_PDD_SPEED_DEP=ENERGY
		DETECTOR_TYPE=A28MR
		REF_FIELD_DEPTH=220.00
		REF_FIELD_DEFINED=ISOCENTER
		REF_FIELD_INPLANE=100.00
		REF_FIELD_CROSSPLANE=100.00
		REF_SCAN_POSITIONS=-85.00;-84.00;-83.00;-82.00;-81.00;-80.00;-79.00;-78.00;-77.00;-76.00;-75.00;-74.00;-73.00;-72.00;-71.00;-70.00;-69.00;-68.00;-67.00;-66.00;-65.00;-64.00;-63.00;-62.00;-61.00;-60.00;-59.00;-58.00;-57.00;-56.00;-55.00;-54.00;-53.00;-52.00;-51.00;-50.00;-49.00;-48.00;-47.00;-46.00;-45.00;-44.00;-43.00;-42.00;-41.00;-40.00;-39.00;-38.00;-37.00;-36.00;-35.00;-34.00;-33.00;-32.00;-31.00;-30.00;-29.00;-28.00;-27.00;-26.00;-25.00;-24.00;-23.00;-22.00;-21.00;-20.00;-19.00;-18.00;-17.00;-16.00;-15.00;-14.00;-13.00;-12.00;-11.00;-10.00;-9.00;-8.00;-7.00;-6.00;-5.00;-4.00;-3.00;-2.00;-1.00;0.00;1.00;2.00;3.00;4.00;5.00;6.00;7.00;8.00;9.00;10.00;11.00;12.00;13.00;14.00;15.00;16.00;17.00;18.00;19.00;20.00;21.00;22.00;23.00;24.00;25.00;26.00;27.00;28.00;29.00;30.00;31.00;32.00;33.00;34.00;35.00;36.00;37.00;38.00;39.00;40.00;41.00;42.00;43.00;44.00;45.00;46.00;47.00;48.00;49.00;50.00;51.00;52.00;53.00;54.00;55.00;56.00;57.00;58.00;59.00;60.00;61.00;62.00;63.00;64.00;65.00;66.00;67.00;68.00;69.00;70.00;71.00;72.00;73.00;74.00;75.00;76.00;77.00;78.00;79.00;80.00;81.00;82.00;83.00;84.00;85.00;
		REF_OVERSCAN_FACTOR=1.00
		SCAN_CURVETYPE=CROSSPLANE_PROFILE
		SCAN_DEPTH=150.00
		SCAN_OFFAXIS_INPLANE=0.00
		SCAN_OFFAXIS_CROSSPLANE=0.00
		SCAN_ANGLE=0.00
		SCAN_DIAGONAL=NOT_DIAGONAL
		SCAN_DIRECTION=POSITIVE
		MEAS_MEDIUM=WATER
		MEAS_PRESET=MEAS_CONTINUOUS_REFERENCE_SCAN
		MEAS_TIME=0.100
		MEAS_UNIT=A.U.
		INCLINATION_ANGLE=0.00
		PRESSURE=1013.25
		TEMPERATURE=20.00
		NORM_TEMPERATURE=20.00
		CORRECTION_FACTOR=1.0000
		EXPECTED_MAX_DOSE_RATE=3.00
		EPOM_DEPTH_SHIFT=0.2
		EPOM_MODE=SHIFT_PROTOCOL
		CORRECTIONS=SSD_CORR;CAX_CORR;INTERPOLATED_CORR;SYMMETRY_CORR;
		BEGIN_DATA
			-96.50		10.812E+00
			-96.00		10.974E+00
			-95.50		11.115E+00
			-95.00		11.208E+00
			-94.50		11.299E+00
			-94.00		11.433E+00
			-93.50		11.577E+00
			-93.00		11.743E+00
			-92.50		11.905E+00
			-92.00		12.046E+00
			-91.50		12.188E+00
			-91.00		12.332E+00
			-90.50		12.472E+00
			-90.00		12.612E+00
			-89.50		12.764E+00
			-89.00		12.933E+00
			-88.50		13.107E+00
			-88.00		13.281E+00
			-87.50		13.440E+00
			-87.00		13.590E+00
			-86.50		13.782E+00
			-86.00		13.981E+00
			-85.50		14.155E+00
			-85.00		14.319E+00
			-84.50		14.504E+00
			-84.00		14.704E+00
			-83.50		14.896E+00
			-83.00		15.075E+00
			-82.50		15.276E+00
			-82.00		15.498E+00
			-81.50		15.715E+00
			-81.00		15.923E+00
			-80.50		16.131E+00
			-80.00		16.337E+00
			-79.50		16.541E+00
			-79.00		16.753E+00
			-78.50		16.973E+00
			-78.00		17.264E+00
			-77.50		17.556E+00
			-77.00		17.817E+00
			-76.50		18.071E+00
			-76.00		18.319E+00
			-75.50		18.580E+00
			-75.00		18.883E+00
			-74.50		19.201E+00
			-74.00		19.500E+00
			-73.50		19.792E+00
			-73.00		20.092E+00
			-72.50		20.396E+00
			-72.00		20.710E+00
			-71.50		21.108E+00
			-71.00		21.506E+00
			-70.50		21.834E+00
			-70.00		22.153E+00
			-69.50		22.526E+00
			-69.00		22.923E+00
			-68.50		23.398E+00
			-68.00		23.902E+00
			-67.50		24.381E+00
			-67.00		24.864E+00
			-66.50		25.376E+00
			-66.00		25.939E+00
			-65.50		26.519E+00
			-65.00		27.178E+00
			-64.50		27.848E+00
			-64.00		28.634E+00
			-63.50		29.437E+00
			-63.00		30.509E+00
			-62.50		31.618E+00
			-62.00		33.118E+00
			-61.50		34.750E+00
			-61.00		36.853E+00
			-60.50		39.242E+00
			-60.00		42.349E+00
			-59.50		46.346E+00
			-59.00		50.801E+00
			-58.50		56.508E+00
			-58.00		62.508E+00
			-57.50		70.228E+00
			-57.00		78.035E+00
			-56.50		86.837E+00
			-56.00		95.758E+00
			-55.50		105.31E+00
			-55.00		114.94E+00
			-54.50		124.44E+00
			-54.00		133.92E+00
			-53.50		143.07E+00
			-53.00		151.90E+00
			-52.50		160.10E+00
			-52.00		167.19E+00
			-51.50		173.82E+00
			-51.00		179.05E+00
			-50.50		184.13E+00
			-50.00		187.81E+00
			-49.50		191.39E+00
			-49.00		194.13E+00
			-48.50		196.76E+00
			-48.00		198.80E+00
			-47.50		200.65E+00
			-47.00		202.32E+00
			-46.50		203.90E+00
			-46.00		205.30E+00
			-45.50		206.45E+00
			-45.00		207.43E+00
			-44.50		208.30E+00
			-44.00		209.26E+00
			-43.50		210.10E+00
			-43.00		210.92E+00
			-42.50		211.73E+00
			-42.00		212.57E+00
			-41.50		213.44E+00
			-41.00		214.30E+00
			-40.50		215.13E+00
			-40.00		215.99E+00
			-39.50		216.76E+00
			-39.00		217.32E+00
			-38.50		217.91E+00
			-38.00		218.61E+00
			-37.50		219.31E+00
			-37.00		219.79E+00
			-36.50		220.22E+00
			-36.00		220.86E+00
			-35.50		221.52E+00
			-35.00		222.13E+00
			-34.50		222.68E+00
			-34.00		223.18E+00
			-33.50		223.68E+00
			-33.00		224.26E+00
			-32.50		224.88E+00
			-32.00		225.38E+00
			-31.50		225.77E+00
			-31.00		226.15E+00
			-30.50		226.58E+00
			-30.00		227.04E+00
			-29.50		227.60E+00
			-29.00		228.16E+00
			-28.50		228.51E+00
			-28.00		228.85E+00
			-27.50		229.49E+00
			-27.00		230.17E+00
			-26.50		230.44E+00
			-26.00		230.64E+00
			-25.50		231.07E+00
			-25.00		231.57E+00
			-24.50		231.99E+00
			-24.00		232.36E+00
			-23.50		232.74E+00
			-23.00		233.07E+00
			-22.50		233.42E+00
			-22.00		233.85E+00
			-21.50		234.31E+00
			-21.00		234.55E+00
			-20.50		234.76E+00
			-20.00		235.18E+00
			-19.50		235.68E+00
			-19.00		235.90E+00
			-18.50		236.01E+00
			-18.00		236.32E+00
			-17.50		236.81E+00
			-17.00		237.20E+00
			-16.50		237.38E+00
			-16.00		237.51E+00
			-15.50		237.55E+00
			-15.00		237.65E+00
			-14.50		237.90E+00
			-14.00		238.16E+00
			-13.50		238.47E+00
			-13.00		238.79E+00
			-12.50		238.98E+00
			-12.00		239.15E+00
			-11.50		239.33E+00
			-11.00		239.61E+00
			-10.50		239.94E+00
			-10.00		240.20E+00
			-9.50		240.39E+00
			-9.00		240.58E+00
			-8.50		240.80E+00
			-8.00		240.96E+00
			-7.50		241.07E+00
			-7.00		241.07E+00
			-6.50		241.07E+00
			-6.00		241.29E+00
			-5.50		241.51E+00
			-5.00		241.53E+00
			-4.50		241.46E+00
			-4.00		241.45E+00
			-3.50		241.53E+00
			-3.00		241.65E+00
			-2.50		241.85E+00
			-2.00		241.98E+00
			-1.50		241.95E+00
			-1.00		242.01E+00
			-0.50		242.32E+00
			0.00		242.57E+00
			0.50		242.32E+00
			1.00		242.01E+00
			1.50		241.95E+00
			2.00		241.98E+00
			2.50		241.85E+00
			3.00		241.65E+00
			3.50		241.53E+00
			4.00		241.45E+00
			4.50		241.46E+00
			5.00		241.53E+00
			5.50		241.51E+00
			6.00		241.29E+00
			6.50		241.07E+00
			7.00		241.07E+00
			7.50		241.07E+00
			8.00		240.96E+00
			8.50		240.80E+00
			9.00		240.58E+00
			9.50		240.39E+00
			10.00		240.20E+00
			10.50		239.94E+00
			11.00		239.61E+00
			11.50		239.33E+00
			12.00		239.15E+00
			12.50		238.98E+00
			13.00		238.79E+00
			13.50		238.47E+00
			14.00		238.16E+00
			14.50		237.90E+00
			15.00		237.65E+00
			15.50		237.55E+00
			16.00		237.51E+00
			16.50		237.38E+00
			17.00		237.20E+00
			17.50		236.81E+00
			18.00		236.32E+00
			18.50		236.01E+00
			19.00		235.90E+00
			19.50		235.68E+00
			20.00		235.18E+00
			20.50		234.76E+00
			21.00		234.55E+00
			21.50		234.31E+00
			22.00		233.85E+00
			22.50		233.42E+00
			23.00		233.07E+00
			23.50		232.74E+00
			24.00		232.36E+00
			24.50		231.99E+00
			25.00		231.57E+00
			25.50		231.07E+00
			26.00		230.64E+00
			26.50		230.44E+00
			27.00		230.17E+00
			27.50		229.49E+00
			28.00		228.85E+00
			28.50		228.51E+00
			29.00		228.16E+00
			29.50		227.60E+00
			30.00		227.04E+00
			30.50		226.58E+00
			31.00		226.15E+00
			31.50		225.77E+00
			32.00		225.38E+00
			32.50		224.88E+00
			33.00		224.26E+00
			33.50		223.68E+00
			34.00		223.18E+00
			34.50		222.68E+00
			35.00		222.13E+00
			35.50		221.52E+00
			36.00		220.86E+00
			36.50		220.22E+00
			37.00		219.79E+00
			37.50		219.31E+00
			38.00		218.61E+00
			38.50		217.91E+00
			39.00		217.32E+00
			39.50		216.76E+00
			40.00		215.99E+00
			40.50		215.13E+00
			41.00		214.30E+00
			41.50		213.44E+00
			42.00		212.57E+00
			42.50		211.73E+00
			43.00		210.92E+00
			43.50		210.10E+00
			44.00		209.26E+00
			44.50		208.30E+00
			45.00		207.43E+00
			45.50		206.45E+00
			46.00		205.30E+00
			46.50		203.90E+00
			47.00		202.32E+00
			47.50		200.65E+00
			48.00		198.80E+00
			48.50		196.76E+00
			49.00		194.13E+00
			49.50		191.39E+00
			50.00		187.81E+00
			50.50		184.13E+00
			51.00		179.05E+00
			51.50		173.82E+00
			52.00		167.19E+00
			52.50		160.10E+00
			53.00		151.90E+00
			53.50		143.07E+00
			54.00		133.92E+00
			54.50		124.44E+00
			55.00		114.94E+00
			55.50		105.31E+00
			56.00		95.758E+00
			56.50		86.837E+00
			57.00		78.035E+00
			57.50		70.228E+00
			58.00		62.508E+00
			58.50		56.508E+00
			59.00		50.801E+00
			59.50		46.346E+00
			60.00		42.349E+00
			60.50		39.242E+00
			61.00		36.853E+00
			61.50		34.750E+00
			62.00		33.118E+00
			62.50		31.618E+00
			63.00		30.509E+00
			63.50		29.437E+00
			64.00		28.634E+00
			64.50		27.848E+00
			65.00		27.178E+00
			65.50		26.519E+00
			66.00		25.939E+00
			66.50		25.376E+00
			67.00		24.864E+00
			67.50		24.381E+00
			68.00		23.902E+00
			68.50		23.398E+00
			69.00		22.923E+00
			69.50		22.526E+00
			70.00		22.153E+00
			70.50		21.834E+00
			71.00		21.506E+00
			71.50		21.108E+00
			72.00		20.710E+00
			72.50		20.396E+00
			73.00		20.092E+00
			73.50		19.792E+00
			74.00		19.500E+00
			74.50		19.201E+00
			75.00		18.883E+00
			75.50		18.580E+00
			76.00		18.319E+00
			76.50		18.071E+00
			77.00		17.817E+00
			77.50		17.556E+00
			78.00		17.264E+00
			78.50		16.973E+00
			79.00		16.753E+00
			79.50		16.541E+00
			80.00		16.337E+00
			80.50		16.131E+00
			81.00		15.923E+00
			81.50		15.715E+00
			82.00		15.498E+00
			82.50		15.276E+00
			83.00		15.075E+00
			83.50		14.896E+00
			84.00		14.704E+00
			84.50		14.504E+00
			85.00		14.319E+00
			85.50		14.155E+00
			86.00		13.981E+00
			86.50		13.782E+00
			87.00		13.590E+00
			87.50		13.440E+00
			88.00		13.281E+00
			88.50		13.107E+00
			89.00		12.933E+00
			89.50		12.764E+00
			90.00		12.612E+00
			90.50		12.472E+00
			91.00		12.332E+00
			91.50		12.188E+00
			92.00		12.046E+00
			92.50		11.905E+00
			93.00		11.743E+00
			93.50		11.577E+00
			94.00		11.433E+00
			94.50		11.299E+00
			95.00		11.208E+00
			95.50		11.115E+00
			96.00		10.974E+00
			96.50		10.812E+00
		END_DATA
	END_SCAN  4
	BEGIN_SCAN  5
		TASK_NAME=tba PDD Profiles
		PROGRAM=WaterTankScans
		COMMENT=Mater Olbia
		MEAS_DATE=08-Feb-2021 09:38:10
		LINAC=MRIdian
		MODALITY=X
		ISOCENTER=900.00
		INPLANE_AXIS=Y
		CROSSPLANE_AXIS=X
		DEPTH_AXIS=Depth
		INPLANE_AXIS_DIR=TARGET_GUN
		CROSSPLANE_AXIS_DIR=LEFT_RIGHT
		DEPTH_AXIS_DIR=UP_DOWN
		ENERGY=6.00
		NOMINAL_DMAX=15.00
		SSD=850.00
		SCD=450.00
		WEDGE_ANGLE=0.00
		FIELD_INPLANE=99.60
		FIELD_CROSSPLANE=99.60
		FIELD_TYPE=RECTANGULAR
		GANTRY=0.00
		GANTRY_UPRIGHT_POSITION=0
		GANTRY_ROTATION=CW
		COLL_ANGLE=0.00
		COLL_OFFSET_INPLANE=0.00
		COLL_OFFSET_CROSSPLANE=0.00
		SCAN_DEVICE=BeamScan
		SCAN_DEVICE_SETUP=BARA_LEFT_RIGHT
		ELECTROMETER=BeamScan
		RANGE_FIELD=LOW
		RANGE_REFERENCE=MEDIUM
		DETECTOR=THIMBLE_CHAMBER
		DETECTOR_RADIUS=2.40
		DETECTOR_NAME=A28MR
		DETECTOR_SN=-
		DETECTOR_CALIBRATION=588000000.00
		DETECTOR_IS_CALIBRATED=0
		DETECTOR_REFERENCE=THIMBLE_CHAMBER
		DETECTOR_REFERENCE_RADIUS=2.75
		DETECTOR_REFERENCE_NAME=A28MR
		DETECTOR_REFERENCE_SN=Ã¢â‚¬â€
		DETECTOR_REFERENCE_IS_CALIBRATED=0
		DETECTOR_REFERENCE_CALIBRATION=303000000.00
		DETECTOR_HV=300.0
		DETECTOR_REFERENCE_HV=300.0
		DETECTOR_ORIENTATION=HORIZONTAL
		FILTER=FFF
		SCAN_SPEED_PROFILE=10.00
		SCAN_PROF_SPEED_DEP=DEPTH
		SCAN_SPEED_PDD=0.00
		SCAN_PDD_SPEED_DEP=ENERGY
		DETECTOR_TYPE=A28MR
		REF_FIELD_DEPTH=220.00
		REF_FIELD_DEFINED=ISOCENTER
		REF_FIELD_INPLANE=100.00
		REF_FIELD_CROSSPLANE=100.00
		REF_SCAN_POSITIONS=-85.00;-84.00;-83.00;-82.00;-81.00;-80.00;-79.00;-78.00;-77.00;-76.00;-75.00;-74.00;-73.00;-72.00;-71.00;-70.00;-69.00;-68.00;-67.00;-66.00;-65.00;-64.00;-63.00;-62.00;-61.00;-60.00;-59.00;-58.00;-57.00;-56.00;-55.00;-54.00;-53.00;-52.00;-51.00;-50.00;-49.00;-48.00;-47.00;-46.00;-45.00;-44.00;-43.00;-42.00;-41.00;-40.00;-39.00;-38.00;-37.00;-36.00;-35.00;-34.00;-33.00;-32.00;-31.00;-30.00;-29.00;-28.00;-27.00;-26.00;-25.00;-24.00;-23.00;-22.00;-21.00;-20.00;-19.00;-18.00;-17.00;-16.00;-15.00;-14.00;-13.00;-12.00;-11.00;-10.00;-9.00;-8.00;-7.00;-6.00;-5.00;-4.00;-3.00;-2.00;-1.00;0.00;1.00;2.00;3.00;4.00;5.00;6.00;7.00;8.00;9.00;10.00;11.00;12.00;13.00;14.00;15.00;16.00;17.00;18.00;19.00;20.00;21.00;22.00;23.00;24.00;25.00;26.00;27.00;28.00;29.00;30.00;31.00;32.00;33.00;34.00;35.00;36.00;37.00;38.00;39.00;40.00;41.00;42.00;43.00;44.00;45.00;46.00;47.00;48.00;49.00;50.00;51.00;52.00;53.00;54.00;55.00;56.00;57.00;58.00;59.00;60.00;61.00;62.00;63.00;64.00;65.00;66.00;67.00;68.00;69.00;70.00;71.00;72.00;73.00;74.00;75.00;76.00;77.00;78.00;79.00;80.00;81.00;82.00;83.00;84.00;85.00;
		REF_OVERSCAN_FACTOR=1.00
		SCAN_CURVETYPE=CROSSPLANE_PROFILE
		SCAN_DEPTH=200.00
		SCAN_OFFAXIS_INPLANE=0.00
		SCAN_OFFAXIS_CROSSPLANE=0.00
		SCAN_ANGLE=0.00
		SCAN_DIAGONAL=NOT_DIAGONAL
		SCAN_DIRECTION=POSITIVE
		MEAS_MEDIUM=WATER
		MEAS_PRESET=MEAS_CONTINUOUS_REFERENCE_SCAN
		MEAS_TIME=0.100
		MEAS_UNIT=A.U.
		INCLINATION_ANGLE=0.00
		PRESSURE=1013.25
		TEMPERATURE=20.00
		NORM_TEMPERATURE=20.00
		CORRECTION_FACTOR=1.0000
		EXPECTED_MAX_DOSE_RATE=3.00
		EPOM_DEPTH_SHIFT=0.2
		EPOM_MODE=SHIFT_PROTOCOL
		CORRECTIONS=SSD_CORR;CAX_CORR;INTERPOLATED_CORR;SYMMETRY_CORR;
		BEGIN_DATA
			-96.50		10.655E+00
			-96.00		10.666E+00
			-95.50		10.806E+00
			-95.00		10.916E+00
			-94.50		11.005E+00
			-94.00		11.134E+00
			-93.50		11.279E+00
			-93.00		11.399E+00
			-92.50		11.527E+00
			-92.00		11.670E+00
			-91.50		11.806E+00
			-91.00		11.937E+00
			-90.50		12.073E+00
			-90.00		12.217E+00
			-89.50		12.370E+00
			-89.00		12.514E+00
			-88.50		12.656E+00
			-88.00		12.803E+00
			-87.50		12.970E+00
			-87.00		13.122E+00
			-86.50		13.257E+00
			-86.00		13.434E+00
			-85.50		13.600E+00
			-85.00		13.735E+00
			-84.50		13.880E+00
			-84.00		14.066E+00
			-83.50		14.265E+00
			-83.00		14.492E+00
			-82.50		14.708E+00
			-82.00		14.851E+00
			-81.50		14.979E+00
			-81.00		15.184E+00
			-80.50		15.413E+00
			-80.00		15.606E+00
			-79.50		15.787E+00
			-79.00		15.978E+00
			-78.50		16.180E+00
			-78.00		16.360E+00
			-77.50		16.565E+00
			-77.00		16.826E+00
			-76.50		17.108E+00
			-76.00		17.363E+00
			-75.50		17.574E+00
			-75.00		17.798E+00
			-74.50		18.056E+00
			-74.00		18.309E+00
			-73.50		18.586E+00
			-73.00		18.895E+00
			-72.50		19.227E+00
			-72.00		19.540E+00
			-71.50		19.829E+00
			-71.00		20.156E+00
			-70.50		20.515E+00
			-70.00		20.887E+00
			-69.50		21.253E+00
			-69.00		21.640E+00
			-68.50		22.044E+00
			-68.00		22.494E+00
			-67.50		22.981E+00
			-67.00		23.580E+00
			-66.50		24.210E+00
			-66.00		24.926E+00
			-65.50		25.709E+00
			-65.00		26.740E+00
			-64.50		27.869E+00
			-64.00		29.332E+00
			-63.50		30.998E+00
			-63.00		33.074E+00
			-62.50		35.622E+00
			-62.00		38.550E+00
			-61.50		42.306E+00
			-61.00		46.298E+00
			-60.50		51.178E+00
			-60.00		56.424E+00
			-59.50		62.276E+00
			-59.00		68.264E+00
			-58.50		74.702E+00
			-58.00		81.385E+00
			-57.50		88.142E+00
			-57.00		94.726E+00
			-56.50		101.07E+00
			-56.00		107.26E+00
			-55.50		113.08E+00
			-55.00		118.43E+00
			-54.50		123.38E+00
			-54.00		127.46E+00
			-53.50		131.29E+00
			-53.00		134.39E+00
			-52.50		137.22E+00
			-52.00		139.51E+00
			-51.50		141.63E+00
			-51.00		143.35E+00
			-50.50		144.92E+00
			-50.00		146.18E+00
			-49.50		147.24E+00
			-49.00		148.19E+00
			-48.50		149.14E+00
			-48.00		150.00E+00
			-47.50		150.74E+00
			-47.00		151.50E+00
			-46.50		152.23E+00
			-46.00		152.89E+00
			-45.50		153.50E+00
			-45.00		154.10E+00
			-44.50		154.71E+00
			-44.00		155.33E+00
			-43.50		155.83E+00
			-43.00		156.27E+00
			-42.50		156.76E+00
			-42.00		157.24E+00
			-41.50		157.70E+00
			-41.00		158.18E+00
			-40.50		158.70E+00
			-40.00		159.15E+00
			-39.50		159.55E+00
			-39.00		159.87E+00
			-38.50		160.26E+00
			-38.00		160.81E+00
			-37.50		161.40E+00
			-37.00		161.90E+00
			-36.50		162.30E+00
			-36.00		162.54E+00
			-35.50		162.86E+00
			-35.00		163.25E+00
			-34.50		163.63E+00
			-34.00		164.04E+00
			-33.50		164.50E+00
			-33.00		164.96E+00
			-32.50		165.29E+00
			-32.00		165.55E+00
			-31.50		165.83E+00
			-31.00		166.12E+00
			-30.50		166.46E+00
			-30.00		166.83E+00
			-29.50		167.27E+00
			-29.00		167.66E+00
			-28.50		167.90E+00
			-28.00		168.10E+00
			-27.50		168.32E+00
			-27.00		168.55E+00
			-26.50		168.77E+00
			-26.00		169.10E+00
			-25.50		169.43E+00
			-25.00		169.75E+00
			-24.50		170.07E+00
			-24.00		170.35E+00
			-23.50		170.63E+00
			-23.00		170.89E+00
			-22.50		171.16E+00
			-22.00		171.43E+00
			-21.50		171.72E+00
			-21.00		172.03E+00
			-20.50		172.33E+00
			-20.00		172.46E+00
			-19.50		172.58E+00
			-19.00		172.85E+00
			-18.50		173.15E+00
			-18.00		173.40E+00
			-17.50		173.55E+00
			-17.00		173.64E+00
			-16.50		173.84E+00
			-16.00		173.96E+00
			-15.50		173.96E+00
			-15.00		174.02E+00
			-14.50		174.29E+00
			-14.00		174.56E+00
			-13.50		174.79E+00
			-13.00		175.01E+00
			-12.50		175.08E+00
			-12.00		175.13E+00
			-11.50		175.35E+00
			-11.00		175.65E+00
			-10.50		175.78E+00
			-10.00		175.76E+00
			-9.50		175.85E+00
			-9.00		175.99E+00
			-8.50		176.07E+00
			-8.00		176.17E+00
			-7.50		176.33E+00
			-7.00		176.52E+00
			-6.50		176.66E+00
			-6.00		176.65E+00
			-5.50		176.56E+00
			-5.00		176.50E+00
			-4.50		176.59E+00
			-4.00		176.71E+00
			-3.50		176.74E+00
			-3.00		176.73E+00
			-2.50		176.83E+00
			-2.00		177.00E+00
			-1.50		177.01E+00
			-1.00		176.96E+00
			-0.50		176.93E+00
			0.00		176.92E+00
			0.50		176.93E+00
			1.00		176.96E+00
			1.50		177.01E+00
			2.00		177.00E+00
			2.50		176.83E+00
			3.00		176.73E+00
			3.50		176.74E+00
			4.00		176.71E+00
			4.50		176.59E+00
			5.00		176.50E+00
			5.50		176.56E+00
			6.00		176.65E+00
			6.50		176.66E+00
			7.00		176.52E+00
			7.50		176.33E+00
			8.00		176.17E+00
			8.50		176.07E+00
			9.00		175.99E+00
			9.50		175.85E+00
			10.00		175.76E+00
			10.50		175.78E+00
			11.00		175.65E+00
			11.50		175.35E+00
			12.00		175.13E+00
			12.50		175.08E+00
			13.00		175.01E+00
			13.50		174.79E+00
			14.00		174.56E+00
			14.50		174.29E+00
			15.00		174.02E+00
			15.50		173.96E+00
			16.00		173.96E+00
			16.50		173.84E+00
			17.00		173.64E+00
			17.50		173.55E+00
			18.00		173.40E+00
			18.50		173.15E+00
			19.00		172.85E+00
			19.50		172.58E+00
			20.00		172.46E+00
			20.50		172.33E+00
			21.00		172.03E+00
			21.50		171.72E+00
			22.00		171.43E+00
			22.50		171.16E+00
			23.00		170.89E+00
			23.50		170.63E+00
			24.00		170.35E+00
			24.50		170.07E+00
			25.00		169.75E+00
			25.50		169.43E+00
			26.00		169.10E+00
			26.50		168.77E+00
			27.00		168.55E+00
			27.50		168.32E+00
			28.00		168.10E+00
			28.50		167.90E+00
			29.00		167.66E+00
			29.50		167.27E+00
			30.00		166.83E+00
			30.50		166.46E+00
			31.00		166.12E+00
			31.50		165.83E+00
			32.00		165.55E+00
			32.50		165.29E+00
			33.00		164.96E+00
			33.50		164.50E+00
			34.00		164.04E+00
			34.50		163.63E+00
			35.00		163.25E+00
			35.50		162.86E+00
			36.00		162.54E+00
			36.50		162.30E+00
			37.00		161.90E+00
			37.50		161.40E+00
			38.00		160.81E+00
			38.50		160.26E+00
			39.00		159.87E+00
			39.50		159.55E+00
			40.00		159.15E+00
			40.50		158.70E+00
			41.00		158.18E+00
			41.50		157.70E+00
			42.00		157.24E+00
			42.50		156.76E+00
			43.00		156.27E+00
			43.50		155.83E+00
			44.00		155.33E+00
			44.50		154.71E+00
			45.00		154.10E+00
			45.50		153.50E+00
			46.00		152.89E+00
			46.50		152.23E+00
			47.00		151.50E+00
			47.50		150.74E+00
			48.00		150.00E+00
			48.50		149.14E+00
			49.00		148.19E+00
			49.50		147.24E+00
			50.00		146.18E+00
			50.50		144.92E+00
			51.00		143.35E+00
			51.50		141.63E+00
			52.00		139.51E+00
			52.50		137.22E+00
			53.00		134.39E+00
			53.50		131.29E+00
			54.00		127.46E+00
			54.50		123.38E+00
			55.00		118.43E+00
			55.50		113.08E+00
			56.00		107.26E+00
			56.50		101.07E+00
			57.00		94.726E+00
			57.50		88.142E+00
			58.00		81.385E+00
			58.50		74.702E+00
			59.00		68.264E+00
			59.50		62.276E+00
			60.00		56.424E+00
			60.50		51.178E+00
			61.00		46.298E+00
			61.50		42.306E+00
			62.00		38.550E+00
			62.50		35.622E+00
			63.00		33.074E+00
			63.50		30.998E+00
			64.00		29.332E+00
			64.50		27.869E+00
			65.00		26.740E+00
			65.50		25.709E+00
			66.00		24.926E+00
			66.50		24.210E+00
			67.00		23.580E+00
			67.50		22.981E+00
			68.00		22.494E+00
			68.50		22.044E+00
			69.00		21.640E+00
			69.50		21.253E+00
			70.00		20.887E+00
			70.50		20.515E+00
			71.00		20.156E+00
			71.50		19.829E+00
			72.00		19.540E+00
			72.50		19.227E+00
			73.00		18.895E+00
			73.50		18.586E+00
			74.00		18.309E+00
			74.50		18.056E+00
			75.00		17.798E+00
			75.50		17.574E+00
			76.00		17.363E+00
			76.50		17.108E+00
			77.00		16.826E+00
			77.50		16.565E+00
			78.00		16.360E+00
			78.50		16.180E+00
			79.00		15.978E+00
			79.50		15.787E+00
			80.00		15.606E+00
			80.50		15.413E+00
			81.00		15.184E+00
			81.50		14.979E+00
			82.00		14.851E+00
			82.50		14.708E+00
			83.00		14.492E+00
			83.50		14.265E+00
			84.00		14.066E+00
			84.50		13.880E+00
			85.00		13.735E+00
			85.50		13.600E+00
			86.00		13.434E+00
			86.50		13.257E+00
			87.00		13.122E+00
			87.50		12.970E+00
			88.00		12.803E+00
			88.50		12.656E+00
			89.00		12.514E+00
			89.50		12.370E+00
			90.00		12.217E+00
			90.50		12.073E+00
			91.00		11.937E+00
			91.50		11.806E+00
			92.00		11.670E+00
			92.50		11.527E+00
			93.00		11.399E+00
			93.50		11.279E+00
			94.00		11.134E+00
			94.50		11.005E+00
			95.00		10.916E+00
			95.50		10.806E+00
			96.00		10.666E+00
			96.50		10.655E+00
		END_DATA
	END_SCAN  5
	BEGIN_SCAN  6
		TASK_NAME=tba PDD Profiles
		PROGRAM=WaterTankScans
		COMMENT=Mater Olbia
		MEAS_DATE=08-Feb-2021 09:38:10
		LINAC=MRIdian
		MODALITY=X
		ISOCENTER=900.00
		INPLANE_AXIS=Y
		CROSSPLANE_AXIS=X
		DEPTH_AXIS=Depth
		INPLANE_AXIS_DIR=TARGET_GUN
		CROSSPLANE_AXIS_DIR=LEFT_RIGHT
		DEPTH_AXIS_DIR=UP_DOWN
		ENERGY=6.00
		NOMINAL_DMAX=15.00
		SSD=850.00
		SCD=450.00
		WEDGE_ANGLE=0.00
		FIELD_INPLANE=99.60
		FIELD_CROSSPLANE=99.60
		FIELD_TYPE=RECTANGULAR
		GANTRY=0.00
		GANTRY_UPRIGHT_POSITION=0
		GANTRY_ROTATION=CW
		COLL_ANGLE=0.00
		COLL_OFFSET_INPLANE=0.00
		COLL_OFFSET_CROSSPLANE=0.00
		SCAN_DEVICE=BeamScan
		SCAN_DEVICE_SETUP=BARA_LEFT_RIGHT
		ELECTROMETER=BeamScan
		RANGE_FIELD=LOW
		RANGE_REFERENCE=MEDIUM
		DETECTOR=THIMBLE_CHAMBER
		DETECTOR_RADIUS=2.40
		DETECTOR_NAME=A28MR
		DETECTOR_SN=-
		DETECTOR_CALIBRATION=588000000.00
		DETECTOR_IS_CALIBRATED=0
		DETECTOR_REFERENCE=THIMBLE_CHAMBER
		DETECTOR_REFERENCE_RADIUS=2.75
		DETECTOR_REFERENCE_NAME=A28MR
		DETECTOR_REFERENCE_SN=Ã¢â‚¬â€
		DETECTOR_REFERENCE_IS_CALIBRATED=0
		DETECTOR_REFERENCE_CALIBRATION=303000000.00
		DETECTOR_HV=300.0
		DETECTOR_REFERENCE_HV=300.0
		DETECTOR_ORIENTATION=HORIZONTAL
		FILTER=FFF
		SCAN_SPEED_PROFILE=10.00
		SCAN_PROF_SPEED_DEP=DEPTH
		SCAN_SPEED_PDD=0.00
		SCAN_PDD_SPEED_DEP=ENERGY
		DETECTOR_TYPE=A28MR
		REF_FIELD_DEPTH=220.00
		REF_FIELD_DEFINED=ISOCENTER
		REF_FIELD_INPLANE=100.00
		REF_FIELD_CROSSPLANE=100.00
		REF_SCAN_POSITIONS=-85.00;-84.00;-83.00;-82.00;-81.00;-80.00;-79.00;-78.00;-77.00;-76.00;-75.00;-74.00;-73.00;-72.00;-71.00;-70.00;-69.00;-68.00;-67.00;-66.00;-65.00;-64.00;-63.00;-62.00;-61.00;-60.00;-59.00;-58.00;-57.00;-56.00;-55.00;-54.00;-53.00;-52.00;-51.00;-50.00;-49.00;-48.00;-47.00;-46.00;-45.00;-44.00;-43.00;-42.00;-41.00;-40.00;-39.00;-38.00;-37.00;-36.00;-35.00;-34.00;-33.00;-32.00;-31.00;-30.00;-29.00;-28.00;-27.00;-26.00;-25.00;-24.00;-23.00;-22.00;-21.00;-20.00;-19.00;-18.00;-17.00;-16.00;-15.00;-14.00;-13.00;-12.00;-11.00;-10.00;-9.00;-8.00;-7.00;-6.00;-5.00;-4.00;-3.00;-2.00;-1.00;0.00;1.00;2.00;3.00;4.00;5.00;6.00;7.00;8.00;9.00;10.00;11.00;12.00;13.00;14.00;15.00;16.00;17.00;18.00;19.00;20.00;21.00;22.00;23.00;24.00;25.00;26.00;27.00;28.00;29.00;30.00;31.00;32.00;33.00;34.00;35.00;36.00;37.00;38.00;39.00;40.00;41.00;42.00;43.00;44.00;45.00;46.00;47.00;48.00;49.00;50.00;51.00;52.00;53.00;54.00;55.00;56.00;57.00;58.00;59.00;60.00;61.00;62.00;63.00;64.00;65.00;66.00;67.00;68.00;69.00;70.00;71.00;72.00;73.00;74.00;75.00;76.00;77.00;78.00;79.00;80.00;81.00;82.00;83.00;84.00;85.00;
		REF_OVERSCAN_FACTOR=1.00
		SCAN_CURVETYPE=CROSSPLANE_PROFILE
		SCAN_DEPTH=250.00
		SCAN_OFFAXIS_INPLANE=0.00
		SCAN_OFFAXIS_CROSSPLANE=0.00
		SCAN_ANGLE=0.00
		SCAN_DIAGONAL=NOT_DIAGONAL
		SCAN_DIRECTION=POSITIVE
		MEAS_MEDIUM=WATER
		MEAS_PRESET=MEAS_CONTINUOUS_REFERENCE_SCAN
		MEAS_TIME=0.100
		MEAS_UNIT=A.U.
		INCLINATION_ANGLE=0.00
		PRESSURE=1013.25
		TEMPERATURE=20.00
		NORM_TEMPERATURE=20.00
		CORRECTION_FACTOR=1.0000
		EXPECTED_MAX_DOSE_RATE=3.00
		EPOM_DEPTH_SHIFT=0.2
		EPOM_MODE=SHIFT_PROTOCOL
		CORRECTIONS=SSD_CORR;CAX_CORR;INTERPOLATED_CORR;SYMMETRY_CORR;
		BEGIN_DATA
			-96.00		9.7807E+00
			-95.50		9.8342E+00
			-95.00		9.9225E+00
			-94.50		10.052E+00
			-94.00		10.187E+00
			-93.50		10.299E+00
			-93.00		10.403E+00
			-92.50		10.514E+00
			-92.00		10.636E+00
			-91.50		10.755E+00
			-91.00		10.860E+00
			-90.50		10.990E+00
			-90.00		11.139E+00
			-89.50		11.246E+00
			-89.00		11.313E+00
			-88.50		11.370E+00
			-88.00		11.465E+00
			-87.50		11.616E+00
			-87.00		11.785E+00
			-86.50		11.943E+00
			-86.00		12.085E+00
			-85.50		12.236E+00
			-85.00		12.411E+00
			-84.50		12.577E+00
			-84.00		12.722E+00
			-83.50		12.851E+00
			-83.00		12.986E+00
			-82.50		13.109E+00
			-82.00		13.226E+00
			-81.50		13.360E+00
			-81.00		13.519E+00
			-80.50		13.707E+00
			-80.00		13.902E+00
			-79.50		14.086E+00
			-79.00		14.266E+00
			-78.50		14.446E+00
			-78.00		14.619E+00
			-77.50		14.785E+00
			-77.00		14.960E+00
			-76.50		15.167E+00
			-76.00		15.413E+00
			-75.50		15.635E+00
			-75.00		15.848E+00
			-74.50		16.075E+00
			-74.00		16.317E+00
			-73.50		16.609E+00
			-73.00		16.916E+00
			-72.50		17.158E+00
			-72.00		17.396E+00
			-71.50		17.715E+00
			-71.00		18.081E+00
			-70.50		18.448E+00
			-70.00		18.816E+00
			-69.50		19.258E+00
			-69.00		19.770E+00
			-68.50		20.379E+00
			-68.00		21.055E+00
			-67.50		21.904E+00
			-67.00		22.883E+00
			-66.50		24.042E+00
			-66.00		25.475E+00
			-65.50		27.142E+00
			-65.00		29.272E+00
			-64.50		31.687E+00
			-64.00		34.482E+00
			-63.50		37.569E+00
			-63.00		41.211E+00
			-62.50		45.164E+00
			-62.00		49.478E+00
			-61.50		53.905E+00
			-61.00		58.477E+00
			-60.50		63.129E+00
			-60.00		67.814E+00
			-59.50		72.431E+00
			-59.00		76.855E+00
			-58.50		81.142E+00
			-58.00		85.132E+00
			-57.50		88.552E+00
			-57.00		91.755E+00
			-56.50		94.626E+00
			-56.00		97.222E+00
			-55.50		99.354E+00
			-55.00		101.28E+00
			-54.50		102.90E+00
			-54.00		104.36E+00
			-53.50		105.56E+00
			-53.00		106.65E+00
			-52.50		107.57E+00
			-52.00		108.35E+00
			-51.50		109.06E+00
			-51.00		109.69E+00
			-50.50		110.31E+00
			-50.00		110.93E+00
			-49.50		111.47E+00
			-49.00		111.85E+00
			-48.50		112.26E+00
			-48.00		112.68E+00
			-47.50		113.08E+00
			-47.00		113.57E+00
			-46.50		114.07E+00
			-46.00		114.49E+00
			-45.50		114.82E+00
			-45.00		115.27E+00
			-44.50		115.82E+00
			-44.00		116.17E+00
			-43.50		116.38E+00
			-43.00		116.77E+00
			-42.50		117.16E+00
			-42.00		117.44E+00
			-41.50		117.73E+00
			-41.00		118.02E+00
			-40.50		118.29E+00
			-40.00		118.57E+00
			-39.50		118.86E+00
			-39.00		119.18E+00
			-38.50		119.46E+00
			-38.00		119.71E+00
			-37.50		119.92E+00
			-37.00		120.17E+00
			-36.50		120.53E+00
			-36.00		120.85E+00
			-35.50		120.99E+00
			-35.00		121.22E+00
			-34.50		121.55E+00
			-34.00		121.80E+00
			-33.50		121.98E+00
			-33.00		122.19E+00
			-32.50		122.47E+00
			-32.00		122.78E+00
			-31.50		123.04E+00
			-31.00		123.24E+00
			-30.50		123.42E+00
			-30.00		123.65E+00
			-29.50		123.96E+00
			-29.00		124.28E+00
			-28.50		124.46E+00
			-28.00		124.59E+00
			-27.50		124.74E+00
			-27.00		124.82E+00
			-26.50		124.96E+00
			-26.00		125.22E+00
			-25.50		125.52E+00
			-25.00		125.76E+00
			-24.50		125.90E+00
			-24.00		126.08E+00
			-23.50		126.32E+00
			-23.00		126.51E+00
			-22.50		126.63E+00
			-22.00		126.76E+00
			-21.50		126.96E+00
			-21.00		127.12E+00
			-20.50		127.24E+00
			-20.00		127.43E+00
			-19.50		127.63E+00
			-19.00		127.72E+00
			-18.50		127.85E+00
			-18.00		128.01E+00
			-17.50		128.17E+00
			-17.00		128.33E+00
			-16.50		128.43E+00
			-16.00		128.50E+00
			-15.50		128.61E+00
			-15.00		128.71E+00
			-14.50		128.79E+00
			-14.00		128.91E+00
			-13.50		129.09E+00
			-13.00		129.23E+00
			-12.50		129.21E+00
			-12.00		129.24E+00
			-11.50		129.43E+00
			-11.00		129.56E+00
			-10.50		129.60E+00
			-10.00		129.70E+00
			-9.50		129.78E+00
			-9.00		129.86E+00
			-8.50		130.01E+00
			-8.00		130.14E+00
			-7.50		130.18E+00
			-7.00		130.20E+00
			-6.50		130.21E+00
			-6.00		130.20E+00
			-5.50		130.21E+00
			-5.00		130.24E+00
			-4.50		130.32E+00
			-4.00		130.43E+00
			-3.50		130.49E+00
			-3.00		130.43E+00
			-2.50		130.43E+00
			-2.00		130.58E+00
			-1.50		130.68E+00
			-1.00		130.60E+00
			-0.50		130.54E+00
			0.00		130.54E+00
			0.50		130.54E+00
			1.00		130.60E+00
			1.50		130.68E+00
			2.00		130.58E+00
			2.50		130.43E+00
			3.00		130.43E+00
			3.50		130.49E+00
			4.00		130.43E+00
			4.50		130.32E+00
			5.00		130.24E+00
			5.50		130.21E+00
			6.00		130.20E+00
			6.50		130.21E+00
			7.00		130.20E+00
			7.50		130.18E+00
			8.00		130.14E+00
			8.50		130.01E+00
			9.00		129.86E+00
			9.50		129.78E+00
			10.00		129.70E+00
			10.50		129.60E+00
			11.00		129.56E+00
			11.50		129.43E+00
			12.00		129.24E+00
			12.50		129.21E+00
			13.00		129.23E+00
			13.50		129.09E+00
			14.00		128.91E+00
			14.50		128.79E+00
			15.00		128.71E+00
			15.50		128.61E+00
			16.00		128.50E+00
			16.50		128.43E+00
			17.00		128.33E+00
			17.50		128.17E+00
			18.00		128.01E+00
			18.50		127.85E+00
			19.00		127.72E+00
			19.50		127.63E+00
			20.00		127.43E+00
			20.50		127.24E+00
			21.00		127.12E+00
			21.50		126.96E+00
			22.00		126.76E+00
			22.50		126.63E+00
			23.00		126.51E+00
			23.50		126.32E+00
			24.00		126.08E+00
			24.50		125.90E+00
			25.00		125.76E+00
			25.50		125.52E+00
			26.00		125.22E+00
			26.50		124.96E+00
			27.00		124.82E+00
			27.50		124.74E+00
			28.00		124.59E+00
			28.50		124.46E+00
			29.00		124.28E+00
			29.50		123.96E+00
			30.00		123.65E+00
			30.50		123.42E+00
			31.00		123.24E+00
			31.50		123.04E+00
			32.00		122.78E+00
			32.50		122.47E+00
			33.00		122.19E+00
			33.50		121.98E+00
			34.00		121.80E+00
			34.50		121.55E+00
			35.00		121.22E+00
			35.50		120.99E+00
			36.00		120.85E+00
			36.50		120.53E+00
			37.00		120.17E+00
			37.50		119.92E+00
			38.00		119.71E+00
			38.50		119.46E+00
			39.00		119.18E+00
			39.50		118.86E+00
			40.00		118.57E+00
			40.50		118.29E+00
			41.00		118.02E+00
			41.50		117.73E+00
			42.00		117.44E+00
			42.50		117.16E+00
			43.00		116.77E+00
			43.50		116.38E+00
			44.00		116.17E+00
			44.50		115.82E+00
			45.00		115.27E+00
			45.50		114.82E+00
			46.00		114.49E+00
			46.50		114.07E+00
			47.00		113.57E+00
			47.50		113.08E+00
			48.00		112.68E+00
			48.50		112.26E+00
			49.00		111.85E+00
			49.50		111.47E+00
			50.00		110.93E+00
			50.50		110.31E+00
			51.00		109.69E+00
			51.50		109.06E+00
			52.00		108.35E+00
			52.50		107.57E+00
			53.00		106.65E+00
			53.50		105.56E+00
			54.00		104.36E+00
			54.50		102.90E+00
			55.00		101.28E+00
			55.50		99.354E+00
			56.00		97.222E+00
			56.50		94.626E+00
			57.00		91.755E+00
			57.50		88.552E+00
			58.00		85.132E+00
			58.50		81.142E+00
			59.00		76.855E+00
			59.50		72.431E+00
			60.00		67.814E+00
			60.50		63.129E+00
			61.00		58.477E+00
			61.50		53.905E+00
			62.00		49.478E+00
			62.50		45.164E+00
			63.00		41.211E+00
			63.50		37.569E+00
			64.00		34.482E+00
			64.50		31.687E+00
			65.00		29.272E+00
			65.50		27.142E+00
			66.00		25.475E+00
			66.50		24.042E+00
			67.00		22.883E+00
			67.50		21.904E+00
			68.00		21.055E+00
			68.50		20.379E+00
			69.00		19.770E+00
			69.50		19.258E+00
			70.00		18.816E+00
			70.50		18.448E+00
			71.00		18.081E+00
			71.50		17.715E+00
			72.00		17.396E+00
			72.50		17.158E+00
			73.00		16.916E+00
			73.50		16.609E+00
			74.00		16.317E+00
			74.50		16.075E+00
			75.00		15.848E+00
			75.50		15.635E+00
			76.00		15.413E+00
			76.50		15.167E+00
			77.00		14.960E+00
			77.50		14.785E+00
			78.00		14.619E+00
			78.50		14.446E+00
			79.00		14.266E+00
			79.50		14.086E+00
			80.00		13.902E+00
			80.50		13.707E+00
			81.00		13.519E+00
			81.50		13.360E+00
			82.00		13.226E+00
			82.50		13.109E+00
			83.00		12.986E+00
			83.50		12.851E+00
			84.00		12.722E+00
			84.50		12.577E+00
			85.00		12.411E+00
			85.50		12.236E+00
			86.00		12.085E+00
			86.50		11.943E+00
			87.00		11.785E+00
			87.50		11.616E+00
			88.00		11.465E+00
			88.50		11.370E+00
			89.00		11.313E+00
			89.50		11.246E+00
			90.00		11.139E+00
			90.50		10.990E+00
			91.00		10.860E+00
			91.50		10.755E+00
			92.00		10.636E+00
			92.50		10.514E+00
			93.00		10.403E+00
			93.50		10.299E+00
			94.00		10.187E+00
			94.50		10.052E+00
			95.00		9.9225E+00
			95.50		9.8342E+00
			96.00		9.7807E+00
		END_DATA
	END_SCAN  6
	BEGIN_SCAN  7
		TASK_NAME=tba PDD Profiles
		PROGRAM=WaterTankScans
		COMMENT=Mater Olbia
		MEAS_DATE=08-Feb-2021 09:38:10
		LINAC=MRIdian
		MODALITY=X
		ISOCENTER=900.00
		INPLANE_AXIS=Y
		CROSSPLANE_AXIS=X
		DEPTH_AXIS=Depth
		INPLANE_AXIS_DIR=TARGET_GUN
		CROSSPLANE_AXIS_DIR=LEFT_RIGHT
		DEPTH_AXIS_DIR=UP_DOWN
		ENERGY=6.00
		NOMINAL_DMAX=15.00
		SSD=850.00
		SCD=450.00
		WEDGE_ANGLE=0.00
		FIELD_INPLANE=99.60
		FIELD_CROSSPLANE=99.60
		FIELD_TYPE=RECTANGULAR
		GANTRY=0.00
		GANTRY_UPRIGHT_POSITION=0
		GANTRY_ROTATION=CW
		COLL_ANGLE=0.00
		COLL_OFFSET_INPLANE=0.00
		COLL_OFFSET_CROSSPLANE=0.00
		SCAN_DEVICE=BeamScan
		SCAN_DEVICE_SETUP=BARA_LEFT_RIGHT
		ELECTROMETER=BeamScan
		RANGE_FIELD=LOW
		RANGE_REFERENCE=MEDIUM
		DETECTOR=THIMBLE_CHAMBER
		DETECTOR_RADIUS=2.40
		DETECTOR_NAME=A28MR
		DETECTOR_SN=-
		DETECTOR_CALIBRATION=588000000.00
		DETECTOR_IS_CALIBRATED=0
		DETECTOR_REFERENCE=THIMBLE_CHAMBER
		DETECTOR_REFERENCE_RADIUS=2.75
		DETECTOR_REFERENCE_NAME=A28MR
		DETECTOR_REFERENCE_SN=Ã¢â‚¬â€
		DETECTOR_REFERENCE_IS_CALIBRATED=0
		DETECTOR_REFERENCE_CALIBRATION=303000000.00
		DETECTOR_HV=300.0
		DETECTOR_REFERENCE_HV=300.0
		DETECTOR_ORIENTATION=HORIZONTAL
		FILTER=FFF
		SCAN_SPEED_PROFILE=10.00
		SCAN_PROF_SPEED_DEP=DEPTH
		SCAN_SPEED_PDD=0.00
		SCAN_PDD_SPEED_DEP=ENERGY
		DETECTOR_TYPE=A28MR
		REF_FIELD_DEPTH=220.00
		REF_FIELD_DEFINED=ISOCENTER
		REF_FIELD_INPLANE=100.00
		REF_FIELD_CROSSPLANE=100.00
		REF_SCAN_POSITIONS=-85.00;-84.00;-83.00;-82.00;-81.00;-80.00;-79.00;-78.00;-77.00;-76.00;-75.00;-74.00;-73.00;-72.00;-71.00;-70.00;-69.00;-68.00;-67.00;-66.00;-65.00;-64.00;-63.00;-62.00;-61.00;-60.00;-59.00;-58.00;-57.00;-56.00;-55.00;-54.00;-53.00;-52.00;-51.00;-50.00;-49.00;-48.00;-47.00;-46.00;-45.00;-44.00;-43.00;-42.00;-41.00;-40.00;-39.00;-38.00;-37.00;-36.00;-35.00;-34.00;-33.00;-32.00;-31.00;-30.00;-29.00;-28.00;-27.00;-26.00;-25.00;-24.00;-23.00;-22.00;-21.00;-20.00;-19.00;-18.00;-17.00;-16.00;-15.00;-14.00;-13.00;-12.00;-11.00;-10.00;-9.00;-8.00;-7.00;-6.00;-5.00;-4.00;-3.00;-2.00;-1.00;0.00;1.00;2.00;3.00;4.00;5.00;6.00;7.00;8.00;9.00;10.00;11.00;12.00;13.00;14.00;15.00;16.00;17.00;18.00;19.00;20.00;21.00;22.00;23.00;24.00;25.00;26.00;27.00;28.00;29.00;30.00;31.00;32.00;33.00;34.00;35.00;36.00;37.00;38.00;39.00;40.00;41.00;42.00;43.00;44.00;45.00;46.00;47.00;48.00;49.00;50.00;51.00;52.00;53.00;54.00;55.00;56.00;57.00;58.00;59.00;60.00;61.00;62.00;63.00;64.00;65.00;66.00;67.00;68.00;69.00;70.00;71.00;72.00;73.00;74.00;75.00;76.00;77.00;78.00;79.00;80.00;81.00;82.00;83.00;84.00;85.00;
		REF_OVERSCAN_FACTOR=1.00
		SCAN_CURVETYPE=CROSSPLANE_PROFILE
		SCAN_DEPTH=285.00
		SCAN_OFFAXIS_INPLANE=0.00
		SCAN_OFFAXIS_CROSSPLANE=0.00
		SCAN_ANGLE=0.00
		SCAN_DIAGONAL=NOT_DIAGONAL
		SCAN_DIRECTION=POSITIVE
		MEAS_MEDIUM=WATER
		MEAS_PRESET=MEAS_CONTINUOUS_REFERENCE_SCAN
		MEAS_TIME=0.100
		MEAS_UNIT=A.U.
		INCLINATION_ANGLE=0.00
		PRESSURE=1013.25
		TEMPERATURE=20.00
		NORM_TEMPERATURE=20.00
		CORRECTION_FACTOR=1.0000
		EXPECTED_MAX_DOSE_RATE=3.00
		EPOM_DEPTH_SHIFT=0.2
		EPOM_MODE=SHIFT_PROTOCOL
		CORRECTIONS=SSD_CORR;CAX_CORR;INTERPOLATED_CORR;SYMMETRY_CORR;
		BEGIN_DATA
			-96.00		8.8580E+00
			-95.50		8.8838E+00
			-95.00		8.9609E+00
			-94.50		9.0352E+00
			-94.00		9.1409E+00
			-93.50		9.2545E+00
			-93.00		9.3453E+00
			-92.50		9.4146E+00
			-92.00		9.4886E+00
			-91.50		9.6068E+00
			-91.00		9.7393E+00
			-90.50		9.8335E+00
			-90.00		9.9116E+00
			-89.50		9.9899E+00
			-89.00		10.075E+00
			-88.50		10.207E+00
			-88.00		10.355E+00
			-87.50		10.483E+00
			-87.00		10.590E+00
			-86.50		10.703E+00
			-86.00		10.823E+00
			-85.50		10.953E+00
			-85.00		11.102E+00
			-84.50		11.234E+00
			-84.00		11.342E+00
			-83.50		11.460E+00
			-83.00		11.613E+00
			-82.50		11.758E+00
			-82.00		11.848E+00
			-81.50		11.956E+00
			-81.00		12.148E+00
			-80.50		12.342E+00
			-80.00		12.470E+00
			-79.50		12.580E+00
			-79.00		12.705E+00
			-78.50		12.845E+00
			-78.00		13.011E+00
			-77.50		13.200E+00
			-77.00		13.407E+00
			-76.50		13.592E+00
			-76.00		13.789E+00
			-75.50		14.036E+00
			-75.00		14.289E+00
			-74.50		14.502E+00
			-74.00		14.707E+00
			-73.50		14.899E+00
			-73.00		15.120E+00
			-72.50		15.485E+00
			-72.00		15.877E+00
			-71.50		16.250E+00
			-71.00		16.614E+00
			-70.50		17.066E+00
			-70.00		17.563E+00
			-69.50		18.222E+00
			-69.00		18.984E+00
			-68.50		19.876E+00
			-68.00		20.959E+00
			-67.50		22.244E+00
			-67.00		23.853E+00
			-66.50		25.595E+00
			-66.00		27.860E+00
			-65.50		30.275E+00
			-65.00		33.116E+00
			-64.50		36.083E+00
			-64.00		39.364E+00
			-63.50		42.725E+00
			-63.00		46.322E+00
			-62.50		49.988E+00
			-62.00		53.711E+00
			-61.50		57.432E+00
			-61.00		60.996E+00
			-60.50		64.414E+00
			-60.00		67.678E+00
			-59.50		70.727E+00
			-59.00		73.533E+00
			-58.50		75.779E+00
			-58.00		77.915E+00
			-57.50		79.738E+00
			-57.00		81.432E+00
			-56.50		82.759E+00
			-56.00		84.018E+00
			-55.50		85.046E+00
			-55.00		85.988E+00
			-54.50		86.624E+00
			-54.00		87.251E+00
			-53.50		87.939E+00
			-53.00		88.582E+00
			-52.50		89.139E+00
			-52.00		89.649E+00
			-51.50		90.096E+00
			-51.00		90.458E+00
			-50.50		90.842E+00
			-50.00		91.216E+00
			-49.50		91.618E+00
			-49.00		92.049E+00
			-48.50		92.413E+00
			-48.00		92.618E+00
			-47.50		92.854E+00
			-47.00		93.229E+00
			-46.50		93.600E+00
			-46.00		93.923E+00
			-45.50		94.204E+00
			-45.00		94.451E+00
			-44.50		94.726E+00
			-44.00		95.033E+00
			-43.50		95.378E+00
			-43.00		95.708E+00
			-42.50		95.943E+00
			-42.00		96.137E+00
			-41.50		96.294E+00
			-41.00		96.489E+00
			-40.50		96.757E+00
			-40.00		97.018E+00
			-39.50		97.304E+00
			-39.00		97.607E+00
			-38.50		97.760E+00
			-38.00		97.883E+00
			-37.50		98.013E+00
			-37.00		98.103E+00
			-36.50		98.270E+00
			-36.00		98.590E+00
			-35.50		98.904E+00
			-35.00		99.055E+00
			-34.50		99.206E+00
			-34.00		99.397E+00
			-33.50		99.609E+00
			-33.00		99.904E+00
			-32.50		100.16E+00
			-32.00		100.27E+00
			-31.50		100.36E+00
			-31.00		100.67E+00
			-30.50		101.03E+00
			-30.00		101.15E+00
			-29.50		101.16E+00
			-29.00		101.27E+00
			-28.50		101.48E+00
			-28.00		101.71E+00
			-27.50		101.96E+00
			-27.00		102.16E+00
			-26.50		102.21E+00
			-26.00		102.26E+00
			-25.50		102.42E+00
			-25.00		102.59E+00
			-24.50		102.69E+00
			-24.00		102.79E+00
			-23.50		102.95E+00
			-23.00		103.13E+00
			-22.50		103.35E+00
			-22.00		103.58E+00
			-21.50		103.62E+00
			-21.00		103.54E+00
			-20.50		103.66E+00
			-20.00		103.93E+00
			-19.50		104.07E+00
			-19.00		104.10E+00
			-18.50		104.19E+00
			-18.00		104.35E+00
			-17.50		104.46E+00
			-17.00		104.62E+00
			-16.50		104.79E+00
			-16.00		104.85E+00
			-15.50		104.87E+00
			-15.00		104.92E+00
			-14.50		105.02E+00
			-14.00		105.11E+00
			-13.50		105.15E+00
			-13.00		105.22E+00
			-12.50		105.31E+00
			-12.00		105.35E+00
			-11.50		105.41E+00
			-11.00		105.52E+00
			-10.50		105.68E+00
			-10.00		105.76E+00
			-9.50		105.67E+00
			-9.00		105.64E+00
			-8.50		105.72E+00
			-8.00		105.80E+00
			-7.50		105.85E+00
			-7.00		105.90E+00
			-6.50		105.99E+00
			-6.00		106.07E+00
			-5.50		106.08E+00
			-5.00		106.10E+00
			-4.50		106.21E+00
			-4.00		106.28E+00
			-3.50		106.31E+00
			-3.00		106.33E+00
			-2.50		106.36E+00
			-2.00		106.32E+00
			-1.50		106.22E+00
			-1.00		106.20E+00
			-0.50		106.26E+00
			0.00		106.30E+00
			0.50		106.26E+00
			1.00		106.20E+00
			1.50		106.22E+00
			2.00		106.32E+00
			2.50		106.36E+00
			3.00		106.33E+00
			3.50		106.31E+00
			4.00		106.28E+00
			4.50		106.21E+00
			5.00		106.10E+00
			5.50		106.08E+00
			6.00		106.07E+00
			6.50		105.99E+00
			7.00		105.90E+00
			7.50		105.85E+00
			8.00		105.80E+00
			8.50		105.72E+00
			9.00		105.64E+00
			9.50		105.67E+00
			10.00		105.76E+00
			10.50		105.68E+00
			11.00		105.52E+00
			11.50		105.41E+00
			12.00		105.35E+00
			12.50		105.31E+00
			13.00		105.22E+00
			13.50		105.15E+00
			14.00		105.11E+00
			14.50		105.02E+00
			15.00		104.92E+00
			15.50		104.87E+00
			16.00		104.85E+00
			16.50		104.79E+00
			17.00		104.62E+00
			17.50		104.46E+00
			18.00		104.35E+00
			18.50		104.19E+00
			19.00		104.10E+00
			19.50		104.07E+00
			20.00		103.93E+00
			20.50		103.66E+00
			21.00		103.54E+00
			21.50		103.62E+00
			22.00		103.58E+00
			22.50		103.35E+00
			23.00		103.13E+00
			23.50		102.95E+00
			24.00		102.79E+00
			24.50		102.69E+00
			25.00		102.59E+00
			25.50		102.42E+00
			26.00		102.26E+00
			26.50		102.21E+00
			27.00		102.16E+00
			27.50		101.96E+00
			28.00		101.71E+00
			28.50		101.48E+00
			29.00		101.27E+00
			29.50		101.16E+00
			30.00		101.15E+00
			30.50		101.03E+00
			31.00		100.67E+00
			31.50		100.36E+00
			32.00		100.27E+00
			32.50		100.16E+00
			33.00		99.904E+00
			33.50		99.609E+00
			34.00		99.397E+00
			34.50		99.206E+00
			35.00		99.055E+00
			35.50		98.904E+00
			36.00		98.590E+00
			36.50		98.270E+00
			37.00		98.103E+00
			37.50		98.013E+00
			38.00		97.883E+00
			38.50		97.760E+00
			39.00		97.607E+00
			39.50		97.304E+00
			40.00		97.018E+00
			40.50		96.757E+00
			41.00		96.489E+00
			41.50		96.294E+00
			42.00		96.137E+00
			42.50		95.943E+00
			43.00		95.708E+00
			43.50		95.378E+00
			44.00		95.033E+00
			44.50		94.726E+00
			45.00		94.451E+00
			45.50		94.204E+00
			46.00		93.923E+00
			46.50		93.600E+00
			47.00		93.229E+00
			47.50		92.854E+00
			48.00		92.618E+00
			48.50		92.413E+00
			49.00		92.049E+00
			49.50		91.618E+00
			50.00		91.216E+00
			50.50		90.842E+00
			51.00		90.458E+00
			51.50		90.096E+00
			52.00		89.649E+00
			52.50		89.139E+00
			53.00		88.582E+00
			53.50		87.939E+00
			54.00		87.251E+00
			54.50		86.624E+00
			55.00		85.988E+00
			55.50		85.046E+00
			56.00		84.018E+00
			56.50		82.759E+00
			57.00		81.432E+00
			57.50		79.738E+00
			58.00		77.915E+00
			58.50		75.779E+00
			59.00		73.533E+00
			59.50		70.727E+00
			60.00		67.678E+00
			60.50		64.414E+00
			61.00		60.996E+00
			61.50		57.432E+00
			62.00		53.711E+00
			62.50		49.988E+00
			63.00		46.322E+00
			63.50		42.725E+00
			64.00		39.364E+00
			64.50		36.083E+00
			65.00		33.116E+00
			65.50		30.275E+00
			66.00		27.860E+00
			66.50		25.595E+00
			67.00		23.853E+00
			67.50		22.244E+00
			68.00		20.959E+00
			68.50		19.876E+00
			69.00		18.984E+00
			69.50		18.222E+00
			70.00		17.563E+00
			70.50		17.066E+00
			71.00		16.614E+00
			71.50		16.250E+00
			72.00		15.877E+00
			72.50		15.485E+00
			73.00		15.120E+00
			73.50		14.899E+00
			74.00		14.707E+00
			74.50		14.502E+00
			75.00		14.289E+00
			75.50		14.036E+00
			76.00		13.789E+00
			76.50		13.592E+00
			77.00		13.407E+00
			77.50		13.200E+00
			78.00		13.011E+00
			78.50		12.845E+00
			79.00		12.705E+00
			79.50		12.580E+00
			80.00		12.470E+00
			80.50		12.342E+00
			81.00		12.148E+00
			81.50		11.956E+00
			82.00		11.848E+00
			82.50		11.758E+00
			83.00		11.613E+00
			83.50		11.460E+00
			84.00		11.342E+00
			84.50		11.234E+00
			85.00		11.102E+00
			85.50		10.953E+00
			86.00		10.823E+00
			86.50		10.703E+00
			87.00		10.590E+00
			87.50		10.483E+00
			88.00		10.355E+00
			88.50		10.207E+00
			89.00		10.075E+00
			89.50		9.9899E+00
			90.00		9.9116E+00
			90.50		9.8335E+00
			91.00		9.7393E+00
			91.50		9.6068E+00
			92.00		9.4886E+00
			92.50		9.4146E+00
			93.00		9.3453E+00
			93.50		9.2545E+00
			94.00		9.1409E+00
			94.50		9.0352E+00
			95.00		8.9609E+00
			95.50		8.8838E+00
			96.00		8.8580E+00
		END_DATA
	END_SCAN  7
END_SCAN_DATA
