BEGIN_SCAN_DATA
	FORMAT=CC-Export V1.9                  
	FILE_CREATION_DATE=11-Mar-2022 16:51:10
	LAST_MODIFIED=11-Mar-2022 16:51:10
	BEGIN_SCAN  1
		TASK_NAME=tba PDD Profiles
		PROGRAM=WaterTankScans
		COMMENT=Gemelli
		MEAS_DATE=08-Feb-2021 09:38:10
		LINAC=MRIdian
		MODALITY=X
		ISOCENTER=900.00
		INPLANE_AXIS=Y
		CROSSPLANE_AXIS=X
		DEPTH_AXIS=Depth
		INPLANE_AXIS_DIR=TARGET_GUN
		CROSSPLANE_AXIS_DIR=LEFT_RIGHT
		DEPTH_AXIS_DIR=UP_DOWN
		ENERGY=6.00
		NOMINAL_DMAX=15.00
		SSD=850.00
		SCD=450.00
		WEDGE_ANGLE=0.00
		FIELD_INPLANE=41.50
		FIELD_CROSSPLANE=41.50
		FIELD_TYPE=RECTANGULAR
		GANTRY=0.00
		GANTRY_UPRIGHT_POSITION=0
		GANTRY_ROTATION=CW
		COLL_ANGLE=0.00
		COLL_OFFSET_INPLANE=0.00
		COLL_OFFSET_CROSSPLANE=0.00
		SCAN_DEVICE=BeamScan
		SCAN_DEVICE_SETUP=BARA_LEFT_RIGHT
		ELECTROMETER=BeamScan
		RANGE_FIELD=LOW
		RANGE_REFERENCE=MEDIUM
		DETECTOR=THIMBLE_CHAMBER
		DETECTOR_RADIUS=2.40
		DETECTOR_NAME=A28MR
		DETECTOR_SN=-
		DETECTOR_CALIBRATION=588000000.00
		DETECTOR_IS_CALIBRATED=0
		DETECTOR_REFERENCE=THIMBLE_CHAMBER
		DETECTOR_REFERENCE_RADIUS=2.75
		DETECTOR_REFERENCE_NAME=A28MR
		DETECTOR_REFERENCE_SN=â€”
		DETECTOR_REFERENCE_IS_CALIBRATED=0
		DETECTOR_REFERENCE_CALIBRATION=303000000.00
		DETECTOR_HV=300.0
		DETECTOR_REFERENCE_HV=300.0
		DETECTOR_ORIENTATION=HORIZONTAL
		FILTER=FFF
		SCAN_SPEED_PROFILE=10.00
		SCAN_PROF_SPEED_DEP=DEPTH
		SCAN_SPEED_PDD=0.00
		SCAN_PDD_SPEED_DEP=ENERGY
		DETECTOR_TYPE=A28MR
		REF_FIELD_DEPTH=220.00
		REF_FIELD_DEFINED=ISOCENTER
		REF_FIELD_INPLANE=100.00
		REF_FIELD_CROSSPLANE=100.00
		REF_SCAN_POSITIONS=-85.00;-84.00;-83.00;-82.00;-81.00;-80.00;-79.00;-78.00;-77.00;-76.00;-75.00;-74.00;-73.00;-72.00;-71.00;-70.00;-69.00;-68.00;-67.00;-66.00;-65.00;-64.00;-63.00;-62.00;-61.00;-60.00;-59.00;-58.00;-57.00;-56.00;-55.00;-54.00;-53.00;-52.00;-51.00;-50.00;-49.00;-48.00;-47.00;-46.00;-45.00;-44.00;-43.00;-42.00;-41.00;-40.00;-39.00;-38.00;-37.00;-36.00;-35.00;-34.00;-33.00;-32.00;-31.00;-30.00;-29.00;-28.00;-27.00;-26.00;-25.00;-24.00;-23.00;-22.00;-21.00;-20.00;-19.00;-18.00;-17.00;-16.00;-15.00;-14.00;-13.00;-12.00;-11.00;-10.00;-9.00;-8.00;-7.00;-6.00;-5.00;-4.00;-3.00;-2.00;-1.00;0.00;1.00;2.00;3.00;4.00;5.00;6.00;7.00;8.00;9.00;10.00;11.00;12.00;13.00;14.00;15.00;16.00;17.00;18.00;19.00;20.00;21.00;22.00;23.00;24.00;25.00;26.00;27.00;28.00;29.00;30.00;31.00;32.00;33.00;34.00;35.00;36.00;37.00;38.00;39.00;40.00;41.00;42.00;43.00;44.00;45.00;46.00;47.00;48.00;49.00;50.00;51.00;52.00;53.00;54.00;55.00;56.00;57.00;58.00;59.00;60.00;61.00;62.00;63.00;64.00;65.00;66.00;67.00;68.00;69.00;70.00;71.00;72.00;73.00;74.00;75.00;76.00;77.00;78.00;79.00;80.00;81.00;82.00;83.00;84.00;85.00;
		REF_OVERSCAN_FACTOR=1.00
		SCAN_CURVETYPE=CROSSPLANE_PROFILE
		SCAN_DEPTH=20.00
		SCAN_OFFAXIS_INPLANE=0.00
		SCAN_OFFAXIS_CROSSPLANE=0.00
		SCAN_ANGLE=0.00
		SCAN_DIAGONAL=NOT_DIAGONAL
		SCAN_DIRECTION=POSITIVE
		MEAS_MEDIUM=WATER
		MEAS_PRESET=MEAS_CONTINUOUS_REFERENCE_SCAN
		MEAS_TIME=0.100
		MEAS_UNIT=A.U.
		INCLINATION_ANGLE=0.00
		PRESSURE=1013.25
		TEMPERATURE=20.00
		NORM_TEMPERATURE=20.00
		CORRECTION_FACTOR=1.0000
		EXPECTED_MAX_DOSE_RATE=3.00
		EPOM_DEPTH_SHIFT=0.2
		EPOM_MODE=SHIFT_PROTOCOL
		CORRECTIONS=CAX_CORR;INTERPOLATED_CORR;SYMMETRY_CORR;
		BEGIN_DATA
			-50.00		2.5408E+00
			-49.50		2.7720E+00
			-49.00		2.8176E+00
			-48.50		2.8718E+00
			-48.00		2.9351E+00
			-47.50		2.9997E+00
			-47.00		3.0653E+00
			-46.50		3.1335E+00
			-46.00		3.1996E+00
			-45.50		3.2706E+00
			-45.00		3.3458E+00
			-44.50		3.4220E+00
			-44.00		3.4978E+00
			-43.50		3.5795E+00
			-43.00		3.6680E+00
			-42.50		3.7644E+00
			-42.00		3.8576E+00
			-41.50		3.9569E+00
			-41.00		4.0595E+00
			-40.50		4.1658E+00
			-40.00		4.2787E+00
			-39.50		4.3924E+00
			-39.00		4.5086E+00
			-38.50		4.6574E+00
			-38.00		4.8134E+00
			-37.50		4.9658E+00
			-37.00		5.1243E+00
			-36.50		5.3046E+00
			-36.00		5.4933E+00
			-35.50		5.6930E+00
			-35.00		5.8988E+00
			-34.50		6.1433E+00
			-34.00		6.4033E+00
			-33.50		6.6769E+00
			-33.00		6.9649E+00
			-32.50		7.3117E+00
			-32.00		7.6790E+00
			-31.50		8.0883E+00
			-31.00		8.5259E+00
			-30.50		9.0466E+00
			-30.00		9.6076E+00
			-29.50		10.304E+00
			-29.00		11.063E+00
			-28.50		11.977E+00
			-28.00		12.976E+00
			-27.50		14.307E+00
			-27.00		15.795E+00
			-26.50		17.844E+00
			-26.00		20.155E+00
			-25.50		23.419E+00
			-25.00		27.253E+00
			-24.50		32.873E+00
			-24.00		39.685E+00
			-23.50		49.913E+00
			-23.00		61.994E+00
			-22.50		78.874E+00
			-22.00		97.313E+00
			-21.50		118.83E+00
			-21.00		141.33E+00
			-20.50		165.61E+00
			-20.00		190.47E+00
			-19.50		216.01E+00
			-19.00		241.35E+00
			-18.50		265.21E+00
			-18.00		288.35E+00
			-17.50		309.15E+00
			-17.00		328.47E+00
			-16.50		343.73E+00
			-16.00		357.20E+00
			-15.50		366.41E+00
			-15.00		374.20E+00
			-14.50		379.77E+00
			-14.00		384.77E+00
			-13.50		388.39E+00
			-13.00		391.41E+00
			-12.50		393.64E+00
			-12.00		395.68E+00
			-11.50		397.16E+00
			-11.00		398.46E+00
			-10.50		399.57E+00
			-10.00		400.63E+00
			-9.50		401.55E+00
			-9.00		402.39E+00
			-8.50		403.10E+00
			-8.00		403.78E+00
			-7.50		404.33E+00
			-7.00		404.82E+00
			-6.50		405.26E+00
			-6.00		405.64E+00
			-5.50		405.77E+00
			-5.00		405.86E+00
			-4.50		406.11E+00
			-4.00		406.41E+00
			-3.50		406.71E+00
			-3.00		406.99E+00
			-2.50		407.10E+00
			-2.00		407.10E+00
			-1.50		407.13E+00
			-1.00		407.18E+00
			-0.50		407.25E+00
			0.00		407.30E+00
			0.50		407.25E+00
			1.00		407.18E+00
			1.50		407.13E+00
			2.00		407.10E+00
			2.50		407.10E+00
			3.00		406.99E+00
			3.50		406.71E+00
			4.00		406.41E+00
			4.50		406.11E+00
			5.00		405.86E+00
			5.50		405.77E+00
			6.00		405.64E+00
			6.50		405.26E+00
			7.00		404.82E+00
			7.50		404.33E+00
			8.00		403.78E+00
			8.50		403.10E+00
			9.00		402.39E+00
			9.50		401.55E+00
			10.00		400.63E+00
			10.50		399.57E+00
			11.00		398.46E+00
			11.50		397.16E+00
			12.00		395.68E+00
			12.50		393.64E+00
			13.00		391.41E+00
			13.50		388.39E+00
			14.00		384.77E+00
			14.50		379.77E+00
			15.00		374.20E+00
			15.50		366.41E+00
			16.00		357.20E+00
			16.50		343.73E+00
			17.00		328.47E+00
			17.50		309.15E+00
			18.00		288.35E+00
			18.50		265.21E+00
			19.00		241.35E+00
			19.50		216.01E+00
			20.00		190.47E+00
			20.50		165.61E+00
			21.00		141.33E+00
			21.50		118.83E+00
			22.00		97.313E+00
			22.50		78.874E+00
			23.00		61.994E+00
			23.50		49.913E+00
			24.00		39.685E+00
			24.50		32.873E+00
			25.00		27.253E+00
			25.50		23.419E+00
			26.00		20.155E+00
			26.50		17.844E+00
			27.00		15.795E+00
			27.50		14.307E+00
			28.00		12.976E+00
			28.50		11.977E+00
			29.00		11.063E+00
			29.50		10.304E+00
			30.00		9.6076E+00
			30.50		9.0466E+00
			31.00		8.5259E+00
			31.50		8.0883E+00
			32.00		7.6790E+00
			32.50		7.3117E+00
			33.00		6.9649E+00
			33.50		6.6769E+00
			34.00		6.4033E+00
			34.50		6.1433E+00
			35.00		5.8988E+00
			35.50		5.6930E+00
			36.00		5.4933E+00
			36.50		5.3046E+00
			37.00		5.1243E+00
			37.50		4.9658E+00
			38.00		4.8134E+00
			38.50		4.6574E+00
			39.00		4.5086E+00
			39.50		4.3924E+00
			40.00		4.2787E+00
			40.50		4.1658E+00
			41.00		4.0595E+00
			41.50		3.9569E+00
			42.00		3.8576E+00
			42.50		3.7644E+00
			43.00		3.6680E+00
			43.50		3.5795E+00
			44.00		3.4978E+00
			44.50		3.4220E+00
			45.00		3.3458E+00
			45.50		3.2706E+00
			46.00		3.1996E+00
			46.50		3.1335E+00
			47.00		3.0653E+00
			47.50		2.9997E+00
			48.00		2.9351E+00
			48.50		2.8718E+00
			49.00		2.8176E+00
			49.50		2.7720E+00
			50.00		2.5408E+00
		END_DATA
	END_SCAN  1
	BEGIN_SCAN  2
		TASK_NAME=tba PDD Profiles
		PROGRAM=WaterTankScans
		COMMENT=Gemelli
		MEAS_DATE=08-Feb-2021 09:38:10
		LINAC=MRIdian
		MODALITY=X
		ISOCENTER=900.00
		INPLANE_AXIS=Y
		CROSSPLANE_AXIS=X
		DEPTH_AXIS=Depth
		INPLANE_AXIS_DIR=TARGET_GUN
		CROSSPLANE_AXIS_DIR=LEFT_RIGHT
		DEPTH_AXIS_DIR=UP_DOWN
		ENERGY=6.00
		NOMINAL_DMAX=15.00
		SSD=850.00
		SCD=450.00
		WEDGE_ANGLE=0.00
		FIELD_INPLANE=41.50
		FIELD_CROSSPLANE=41.50
		FIELD_TYPE=RECTANGULAR
		GANTRY=0.00
		GANTRY_UPRIGHT_POSITION=0
		GANTRY_ROTATION=CW
		COLL_ANGLE=0.00
		COLL_OFFSET_INPLANE=0.00
		COLL_OFFSET_CROSSPLANE=0.00
		SCAN_DEVICE=BeamScan
		SCAN_DEVICE_SETUP=BARA_LEFT_RIGHT
		ELECTROMETER=BeamScan
		RANGE_FIELD=LOW
		RANGE_REFERENCE=MEDIUM
		DETECTOR=THIMBLE_CHAMBER
		DETECTOR_RADIUS=2.40
		DETECTOR_NAME=A28MR
		DETECTOR_SN=-
		DETECTOR_CALIBRATION=588000000.00
		DETECTOR_IS_CALIBRATED=0
		DETECTOR_REFERENCE=THIMBLE_CHAMBER
		DETECTOR_REFERENCE_RADIUS=2.75
		DETECTOR_REFERENCE_NAME=A28MR
		DETECTOR_REFERENCE_SN=â€”
		DETECTOR_REFERENCE_IS_CALIBRATED=0
		DETECTOR_REFERENCE_CALIBRATION=303000000.00
		DETECTOR_HV=300.0
		DETECTOR_REFERENCE_HV=300.0
		DETECTOR_ORIENTATION=HORIZONTAL
		FILTER=FFF
		SCAN_SPEED_PROFILE=10.00
		SCAN_PROF_SPEED_DEP=DEPTH
		SCAN_SPEED_PDD=0.00
		SCAN_PDD_SPEED_DEP=ENERGY
		DETECTOR_TYPE=A28MR
		REF_FIELD_DEPTH=220.00
		REF_FIELD_DEFINED=ISOCENTER
		REF_FIELD_INPLANE=100.00
		REF_FIELD_CROSSPLANE=100.00
		REF_SCAN_POSITIONS=-85.00;-84.00;-83.00;-82.00;-81.00;-80.00;-79.00;-78.00;-77.00;-76.00;-75.00;-74.00;-73.00;-72.00;-71.00;-70.00;-69.00;-68.00;-67.00;-66.00;-65.00;-64.00;-63.00;-62.00;-61.00;-60.00;-59.00;-58.00;-57.00;-56.00;-55.00;-54.00;-53.00;-52.00;-51.00;-50.00;-49.00;-48.00;-47.00;-46.00;-45.00;-44.00;-43.00;-42.00;-41.00;-40.00;-39.00;-38.00;-37.00;-36.00;-35.00;-34.00;-33.00;-32.00;-31.00;-30.00;-29.00;-28.00;-27.00;-26.00;-25.00;-24.00;-23.00;-22.00;-21.00;-20.00;-19.00;-18.00;-17.00;-16.00;-15.00;-14.00;-13.00;-12.00;-11.00;-10.00;-9.00;-8.00;-7.00;-6.00;-5.00;-4.00;-3.00;-2.00;-1.00;0.00;1.00;2.00;3.00;4.00;5.00;6.00;7.00;8.00;9.00;10.00;11.00;12.00;13.00;14.00;15.00;16.00;17.00;18.00;19.00;20.00;21.00;22.00;23.00;24.00;25.00;26.00;27.00;28.00;29.00;30.00;31.00;32.00;33.00;34.00;35.00;36.00;37.00;38.00;39.00;40.00;41.00;42.00;43.00;44.00;45.00;46.00;47.00;48.00;49.00;50.00;51.00;52.00;53.00;54.00;55.00;56.00;57.00;58.00;59.00;60.00;61.00;62.00;63.00;64.00;65.00;66.00;67.00;68.00;69.00;70.00;71.00;72.00;73.00;74.00;75.00;76.00;77.00;78.00;79.00;80.00;81.00;82.00;83.00;84.00;85.00;
		REF_OVERSCAN_FACTOR=1.00
		SCAN_CURVETYPE=CROSSPLANE_PROFILE
		SCAN_DEPTH=55.00
		SCAN_OFFAXIS_INPLANE=0.00
		SCAN_OFFAXIS_CROSSPLANE=0.00
		SCAN_ANGLE=0.00
		SCAN_DIAGONAL=NOT_DIAGONAL
		SCAN_DIRECTION=POSITIVE
		MEAS_MEDIUM=WATER
		MEAS_PRESET=MEAS_CONTINUOUS_REFERENCE_SCAN
		MEAS_TIME=0.100
		MEAS_UNIT=A.U.
		INCLINATION_ANGLE=0.00
		PRESSURE=1013.25
		TEMPERATURE=20.00
		NORM_TEMPERATURE=20.00
		CORRECTION_FACTOR=1.0000
		EXPECTED_MAX_DOSE_RATE=3.00
		EPOM_DEPTH_SHIFT=0.2
		EPOM_MODE=SHIFT_PROTOCOL
		CORRECTIONS=CAX_CORR;INTERPOLATED_CORR;SYMMETRY_CORR;
		BEGIN_DATA
			-50.00		4.2789E+00
			-49.50		4.1743E+00
			-49.00		4.2606E+00
			-48.50		4.3639E+00
			-48.00		4.4732E+00
			-47.50		4.5760E+00
			-47.00		4.6752E+00
			-46.50		4.7877E+00
			-46.00		4.9029E+00
			-45.50		5.0224E+00
			-45.00		5.1432E+00
			-44.50		5.2703E+00
			-44.00		5.4002E+00
			-43.50		5.5336E+00
			-43.00		5.6679E+00
			-42.50		5.8243E+00
			-42.00		5.9844E+00
			-41.50		6.1496E+00
			-41.00		6.3168E+00
			-40.50		6.4896E+00
			-40.00		6.6637E+00
			-39.50		6.8527E+00
			-39.00		7.0470E+00
			-38.50		7.2667E+00
			-38.00		7.4881E+00
			-37.50		7.7189E+00
			-37.00		7.9619E+00
			-36.50		8.2412E+00
			-36.00		8.5187E+00
			-35.50		8.8117E+00
			-35.00		9.1164E+00
			-34.50		9.4546E+00
			-34.00		9.7977E+00
			-33.50		10.191E+00
			-33.00		10.597E+00
			-32.50		11.064E+00
			-32.00		11.552E+00
			-31.50		12.104E+00
			-31.00		12.671E+00
			-30.50		13.361E+00
			-30.00		14.093E+00
			-29.50		14.957E+00
			-29.00		15.867E+00
			-28.50		17.073E+00
			-28.00		18.360E+00
			-27.50		20.062E+00
			-27.00		21.917E+00
			-26.50		24.547E+00
			-26.00		27.409E+00
			-25.50		31.690E+00
			-25.00		36.424E+00
			-24.50		43.966E+00
			-24.00		52.207E+00
			-23.50		64.412E+00
			-23.00		77.376E+00
			-22.50		93.143E+00
			-22.00		109.50E+00
			-21.50		127.86E+00
			-21.00		146.54E+00
			-20.50		165.86E+00
			-20.00		185.15E+00
			-19.50		203.53E+00
			-19.00		221.62E+00
			-18.50		237.88E+00
			-18.00		253.61E+00
			-17.50		266.22E+00
			-17.00		278.02E+00
			-16.50		286.10E+00
			-16.00		293.51E+00
			-15.50		298.45E+00
			-15.00		302.87E+00
			-14.50		306.06E+00
			-14.00		309.05E+00
			-13.50		311.18E+00
			-13.00		313.11E+00
			-12.50		314.61E+00
			-12.00		316.06E+00
			-11.50		317.15E+00
			-11.00		318.15E+00
			-10.50		318.89E+00
			-10.00		319.60E+00
			-9.50		320.30E+00
			-9.00		320.97E+00
			-8.50		321.45E+00
			-8.00		321.90E+00
			-7.50		322.47E+00
			-7.00		323.01E+00
			-6.50		323.18E+00
			-6.00		323.35E+00
			-5.50		323.71E+00
			-5.00		324.09E+00
			-4.50		324.29E+00
			-4.00		324.48E+00
			-3.50		324.70E+00
			-3.00		324.90E+00
			-2.50		324.95E+00
			-2.00		324.99E+00
			-1.50		325.11E+00
			-1.00		325.24E+00
			-0.50		325.33E+00
			0.00		325.41E+00
			0.50		325.33E+00
			1.00		325.24E+00
			1.50		325.11E+00
			2.00		324.99E+00
			2.50		324.95E+00
			3.00		324.90E+00
			3.50		324.70E+00
			4.00		324.48E+00
			4.50		324.29E+00
			5.00		324.09E+00
			5.50		323.71E+00
			6.00		323.35E+00
			6.50		323.18E+00
			7.00		323.01E+00
			7.50		322.47E+00
			8.00		321.90E+00
			8.50		321.45E+00
			9.00		320.97E+00
			9.50		320.30E+00
			10.00		319.60E+00
			10.50		318.89E+00
			11.00		318.15E+00
			11.50		317.15E+00
			12.00		316.06E+00
			12.50		314.61E+00
			13.00		313.11E+00
			13.50		311.18E+00
			14.00		309.05E+00
			14.50		306.06E+00
			15.00		302.87E+00
			15.50		298.45E+00
			16.00		293.51E+00
			16.50		286.10E+00
			17.00		278.02E+00
			17.50		266.22E+00
			18.00		253.61E+00
			18.50		237.88E+00
			19.00		221.62E+00
			19.50		203.53E+00
			20.00		185.15E+00
			20.50		165.86E+00
			21.00		146.54E+00
			21.50		127.86E+00
			22.00		109.50E+00
			22.50		93.143E+00
			23.00		77.376E+00
			23.50		64.412E+00
			24.00		52.207E+00
			24.50		43.966E+00
			25.00		36.424E+00
			25.50		31.690E+00
			26.00		27.409E+00
			26.50		24.547E+00
			27.00		21.917E+00
			27.50		20.062E+00
			28.00		18.360E+00
			28.50		17.073E+00
			29.00		15.867E+00
			29.50		14.957E+00
			30.00		14.093E+00
			30.50		13.361E+00
			31.00		12.671E+00
			31.50		12.104E+00
			32.00		11.552E+00
			32.50		11.064E+00
			33.00		10.597E+00
			33.50		10.191E+00
			34.00		9.7977E+00
			34.50		9.4546E+00
			35.00		9.1164E+00
			35.50		8.8117E+00
			36.00		8.5187E+00
			36.50		8.2412E+00
			37.00		7.9619E+00
			37.50		7.7189E+00
			38.00		7.4881E+00
			38.50		7.2667E+00
			39.00		7.0470E+00
			39.50		6.8527E+00
			40.00		6.6637E+00
			40.50		6.4896E+00
			41.00		6.3168E+00
			41.50		6.1496E+00
			42.00		5.9844E+00
			42.50		5.8243E+00
			43.00		5.6679E+00
			43.50		5.5336E+00
			44.00		5.4002E+00
			44.50		5.2703E+00
			45.00		5.1432E+00
			45.50		5.0224E+00
			46.00		4.9029E+00
			46.50		4.7877E+00
			47.00		4.6752E+00
			47.50		4.5760E+00
			48.00		4.4732E+00
			48.50		4.3639E+00
			49.00		4.2606E+00
			49.50		4.1743E+00
			50.00		4.2789E+00
		END_DATA
	END_SCAN  2
	BEGIN_SCAN  3
		TASK_NAME=tba PDD Profiles
		PROGRAM=WaterTankScans
		COMMENT=Gemelli
		MEAS_DATE=08-Feb-2021 09:38:10
		LINAC=MRIdian
		MODALITY=X
		ISOCENTER=900.00
		INPLANE_AXIS=Y
		CROSSPLANE_AXIS=X
		DEPTH_AXIS=Depth
		INPLANE_AXIS_DIR=TARGET_GUN
		CROSSPLANE_AXIS_DIR=LEFT_RIGHT
		DEPTH_AXIS_DIR=UP_DOWN
		ENERGY=6.00
		NOMINAL_DMAX=15.00
		SSD=850.00
		SCD=450.00
		WEDGE_ANGLE=0.00
		FIELD_INPLANE=41.50
		FIELD_CROSSPLANE=41.50
		FIELD_TYPE=RECTANGULAR
		GANTRY=0.00
		GANTRY_UPRIGHT_POSITION=0
		GANTRY_ROTATION=CW
		COLL_ANGLE=0.00
		COLL_OFFSET_INPLANE=0.00
		COLL_OFFSET_CROSSPLANE=0.00
		SCAN_DEVICE=BeamScan
		SCAN_DEVICE_SETUP=BARA_LEFT_RIGHT
		ELECTROMETER=BeamScan
		RANGE_FIELD=LOW
		RANGE_REFERENCE=MEDIUM
		DETECTOR=THIMBLE_CHAMBER
		DETECTOR_RADIUS=2.40
		DETECTOR_NAME=A28MR
		DETECTOR_SN=-
		DETECTOR_CALIBRATION=588000000.00
		DETECTOR_IS_CALIBRATED=0
		DETECTOR_REFERENCE=THIMBLE_CHAMBER
		DETECTOR_REFERENCE_RADIUS=2.75
		DETECTOR_REFERENCE_NAME=A28MR
		DETECTOR_REFERENCE_SN=â€”
		DETECTOR_REFERENCE_IS_CALIBRATED=0
		DETECTOR_REFERENCE_CALIBRATION=303000000.00
		DETECTOR_HV=300.0
		DETECTOR_REFERENCE_HV=300.0
		DETECTOR_ORIENTATION=HORIZONTAL
		FILTER=FFF
		SCAN_SPEED_PROFILE=10.00
		SCAN_PROF_SPEED_DEP=DEPTH
		SCAN_SPEED_PDD=0.00
		SCAN_PDD_SPEED_DEP=ENERGY
		DETECTOR_TYPE=A28MR
		REF_FIELD_DEPTH=220.00
		REF_FIELD_DEFINED=ISOCENTER
		REF_FIELD_INPLANE=100.00
		REF_FIELD_CROSSPLANE=100.00
		REF_SCAN_POSITIONS=-85.00;-84.00;-83.00;-82.00;-81.00;-80.00;-79.00;-78.00;-77.00;-76.00;-75.00;-74.00;-73.00;-72.00;-71.00;-70.00;-69.00;-68.00;-67.00;-66.00;-65.00;-64.00;-63.00;-62.00;-61.00;-60.00;-59.00;-58.00;-57.00;-56.00;-55.00;-54.00;-53.00;-52.00;-51.00;-50.00;-49.00;-48.00;-47.00;-46.00;-45.00;-44.00;-43.00;-42.00;-41.00;-40.00;-39.00;-38.00;-37.00;-36.00;-35.00;-34.00;-33.00;-32.00;-31.00;-30.00;-29.00;-28.00;-27.00;-26.00;-25.00;-24.00;-23.00;-22.00;-21.00;-20.00;-19.00;-18.00;-17.00;-16.00;-15.00;-14.00;-13.00;-12.00;-11.00;-10.00;-9.00;-8.00;-7.00;-6.00;-5.00;-4.00;-3.00;-2.00;-1.00;0.00;1.00;2.00;3.00;4.00;5.00;6.00;7.00;8.00;9.00;10.00;11.00;12.00;13.00;14.00;15.00;16.00;17.00;18.00;19.00;20.00;21.00;22.00;23.00;24.00;25.00;26.00;27.00;28.00;29.00;30.00;31.00;32.00;33.00;34.00;35.00;36.00;37.00;38.00;39.00;40.00;41.00;42.00;43.00;44.00;45.00;46.00;47.00;48.00;49.00;50.00;51.00;52.00;53.00;54.00;55.00;56.00;57.00;58.00;59.00;60.00;61.00;62.00;63.00;64.00;65.00;66.00;67.00;68.00;69.00;70.00;71.00;72.00;73.00;74.00;75.00;76.00;77.00;78.00;79.00;80.00;81.00;82.00;83.00;84.00;85.00;
		REF_OVERSCAN_FACTOR=1.00
		SCAN_CURVETYPE=CROSSPLANE_PROFILE
		SCAN_DEPTH=100.00
		SCAN_OFFAXIS_INPLANE=0.00
		SCAN_OFFAXIS_CROSSPLANE=0.00
		SCAN_ANGLE=0.00
		SCAN_DIAGONAL=NOT_DIAGONAL
		SCAN_DIRECTION=POSITIVE
		MEAS_MEDIUM=WATER
		MEAS_PRESET=MEAS_CONTINUOUS_REFERENCE_SCAN
		MEAS_TIME=0.100
		MEAS_UNIT=A.U.
		INCLINATION_ANGLE=0.00
		PRESSURE=1013.25
		TEMPERATURE=20.00
		NORM_TEMPERATURE=20.00
		CORRECTION_FACTOR=1.0000
		EXPECTED_MAX_DOSE_RATE=3.00
		EPOM_DEPTH_SHIFT=0.2
		EPOM_MODE=SHIFT_PROTOCOL
		CORRECTIONS=MODIFIED_CORR;CAX_CORR;INTERPOLATED_CORR;SYMMETRY_CORR;
		BEGIN_DATA
			-50.00		5.2957E+00
			-49.50		5.1002E+00
			-49.00		5.3018E+00
			-48.50		5.4973E+00
			-48.00		5.4994E+00
			-47.50		5.5015E+00
			-47.00		5.7053E+00
			-46.50		5.9088E+00
			-46.00		6.1123E+00
			-45.50		6.3100E+00
			-45.00		6.3141E+00
			-44.50		6.3202E+00
			-44.00		6.5188E+00
			-43.50		6.7234E+00
			-43.00		6.9261E+00
			-42.50		7.1288E+00
			-42.00		7.3316E+00
			-41.50		7.5282E+00
			-41.00		7.6328E+00
			-40.50		7.7457E+00
			-40.00		7.9445E+00
			-39.50		8.1434E+00
			-39.00		8.3499E+00
			-38.50		8.5644E+00
			-38.00		8.8669E+00
			-37.50		9.1656E+00
			-37.00		9.4673E+00
			-36.50		9.7726E+00
			-36.00		9.9799E+00
			-35.50		10.186E+00
			-35.00		10.590E+00
			-34.50		10.998E+00
			-34.00		11.311E+00
			-33.50		11.615E+00
			-33.00		12.017E+00
			-32.50		12.427E+00
			-32.00		12.939E+00
			-31.50		13.459E+00
			-31.00		14.161E+00
			-30.50		14.872E+00
			-30.00		15.676E+00
			-29.50		16.490E+00
			-29.00		17.708E+00
			-28.50		18.954E+00
			-28.00		20.651E+00
			-27.50		22.375E+00
			-27.00		25.208E+00
			-26.50		28.130E+00
			-26.00		32.545E+00
			-25.50		37.041E+00
			-25.00		44.375E+00
			-24.50		51.837E+00
			-24.00		62.173E+00
			-23.50		72.674E+00
			-23.00		84.885E+00
			-22.50		97.189E+00
			-22.00		110.26E+00
			-21.50		123.34E+00
			-21.00		137.15E+00
			-20.50		151.04E+00
			-20.00		163.48E+00
			-19.50		175.82E+00
			-19.00		185.82E+00
			-18.50		195.66E+00
			-18.00		203.05E+00
			-17.50		210.33E+00
			-17.00		214.79E+00
			-16.50		219.12E+00
			-16.00		222.08E+00
			-15.50		224.98E+00
			-15.00		226.96E+00
			-14.50		228.89E+00
			-14.00		230.35E+00
			-13.50		231.77E+00
			-13.00		232.79E+00
			-12.50		233.79E+00
			-12.00		234.43E+00
			-11.50		235.05E+00
			-11.00		235.76E+00
			-10.50		236.46E+00
			-10.00		236.86E+00
			-9.50		237.27E+00
			-9.00		237.60E+00
			-8.50		237.90E+00
			-8.00		238.29E+00
			-7.50		238.70E+00
			-7.00		238.81E+00
			-6.50		238.92E+00
			-6.00		239.21E+00
			-5.50		239.52E+00
			-5.00		239.63E+00
			-4.50		239.74E+00
			-4.00		239.93E+00
			-3.50		240.13E+00
			-3.00		240.13E+00
			-2.50		240.13E+00
			-2.00		240.23E+00
			-1.50		240.34E+00
			-1.00		240.45E+00
			-0.50		240.54E+00
			0.00		240.53E+00
			0.50		240.54E+00
			1.00		240.45E+00
			1.50		240.34E+00
			2.00		240.23E+00
			2.50		240.13E+00
			3.00		240.13E+00
			3.50		240.13E+00
			4.00		239.93E+00
			4.50		239.74E+00
			5.00		239.63E+00
			5.50		239.52E+00
			6.00		239.21E+00
			6.50		238.92E+00
			7.00		238.81E+00
			7.50		238.70E+00
			8.00		238.29E+00
			8.50		237.90E+00
			9.00		237.60E+00
			9.50		237.27E+00
			10.00		236.86E+00
			10.50		236.46E+00
			11.00		235.76E+00
			11.50		235.05E+00
			12.00		234.43E+00
			12.50		233.79E+00
			13.00		232.79E+00
			13.50		231.77E+00
			14.00		230.35E+00
			14.50		228.89E+00
			15.00		226.96E+00
			15.50		224.98E+00
			16.00		222.08E+00
			16.50		219.12E+00
			17.00		214.79E+00
			17.50		210.33E+00
			18.00		203.05E+00
			18.50		195.66E+00
			19.00		185.82E+00
			19.50		175.82E+00
			20.00		163.48E+00
			20.50		151.04E+00
			21.00		137.15E+00
			21.50		123.34E+00
			22.00		110.26E+00
			22.50		97.189E+00
			23.00		84.885E+00
			23.50		72.674E+00
			24.00		62.173E+00
			24.50		51.837E+00
			25.00		44.375E+00
			25.50		37.041E+00
			26.00		32.545E+00
			26.50		28.130E+00
			27.00		25.208E+00
			27.50		22.375E+00
			28.00		20.651E+00
			28.50		18.954E+00
			29.00		17.708E+00
			29.50		16.490E+00
			30.00		15.676E+00
			30.50		14.872E+00
			31.00		14.161E+00
			31.50		13.459E+00
			32.00		12.939E+00
			32.50		12.427E+00
			33.00		12.017E+00
			33.50		11.615E+00
			34.00		11.311E+00
			34.50		10.998E+00
			35.00		10.590E+00
			35.50		10.186E+00
			36.00		9.9799E+00
			36.50		9.7726E+00
			37.00		9.4673E+00
			37.50		9.1656E+00
			38.00		8.8669E+00
			38.50		8.5644E+00
			39.00		8.3499E+00
			39.50		8.1434E+00
			40.00		7.9445E+00
			40.50		7.7457E+00
			41.00		7.6328E+00
			41.50		7.5282E+00
			42.00		7.3316E+00
			42.50		7.1288E+00
			43.00		6.9261E+00
			43.50		6.7234E+00
			44.00		6.5188E+00
			44.50		6.3202E+00
			45.00		6.3141E+00
			45.50		6.3100E+00
			46.00		6.1123E+00
			46.50		5.9088E+00
			47.00		5.7053E+00
			47.50		5.5015E+00
			48.00		5.4994E+00
			48.50		5.4973E+00
			49.00		5.3018E+00
			49.50		5.1002E+00
			50.00		5.2957E+00
		END_DATA
	END_SCAN  3
	BEGIN_SCAN  4
		TASK_NAME=tba PDD Profiles
		PROGRAM=WaterTankScans
		COMMENT=Gemelli
		MEAS_DATE=08-Feb-2021 09:38:10
		LINAC=MRIdian
		MODALITY=X
		ISOCENTER=900.00
		INPLANE_AXIS=Y
		CROSSPLANE_AXIS=X
		DEPTH_AXIS=Depth
		INPLANE_AXIS_DIR=TARGET_GUN
		CROSSPLANE_AXIS_DIR=LEFT_RIGHT
		DEPTH_AXIS_DIR=UP_DOWN
		ENERGY=6.00
		NOMINAL_DMAX=15.00
		SSD=850.00
		SCD=450.00
		WEDGE_ANGLE=0.00
		FIELD_INPLANE=42.00
		FIELD_CROSSPLANE=42.00
		FIELD_TYPE=RECTANGULAR
		GANTRY=0.00
		GANTRY_UPRIGHT_POSITION=0
		GANTRY_ROTATION=CW
		COLL_ANGLE=0.00
		COLL_OFFSET_INPLANE=0.00
		COLL_OFFSET_CROSSPLANE=0.00
		SCAN_DEVICE=BeamScan
		SCAN_DEVICE_SETUP=BARA_LEFT_RIGHT
		ELECTROMETER=BeamScan
		RANGE_FIELD=LOW
		RANGE_REFERENCE=MEDIUM
		DETECTOR=THIMBLE_CHAMBER
		DETECTOR_RADIUS=2.40
		DETECTOR_NAME=A28MR
		DETECTOR_SN=-
		DETECTOR_CALIBRATION=588000000.00
		DETECTOR_IS_CALIBRATED=0
		DETECTOR_REFERENCE=THIMBLE_CHAMBER
		DETECTOR_REFERENCE_RADIUS=2.75
		DETECTOR_REFERENCE_NAME=A28MR
		DETECTOR_REFERENCE_SN=â€”
		DETECTOR_REFERENCE_IS_CALIBRATED=0
		DETECTOR_REFERENCE_CALIBRATION=303000000.00
		DETECTOR_HV=300.0
		DETECTOR_REFERENCE_HV=300.0
		DETECTOR_ORIENTATION=HORIZONTAL
		FILTER=FFF
		SCAN_SPEED_PROFILE=10.00
		SCAN_PROF_SPEED_DEP=DEPTH
		SCAN_SPEED_PDD=0.00
		SCAN_PDD_SPEED_DEP=ENERGY
		REF_FIELD_DEPTH=50.00
		REF_FIELD_DEFINED=ISOCENTER
		REF_FIELD_INPLANE=100.00
		REF_FIELD_CROSSPLANE=100.00
		REF_SCAN_POSITIONS=-85.00;-84.00;-83.00;-82.00;-81.00;-80.00;-79.00;-78.00;-77.00;-76.00;-75.00;-74.00;-73.00;-72.00;-71.00;-70.00;-69.00;-68.00;-67.00;-66.00;-65.00;-64.00;-63.00;-62.00;-61.00;-60.00;-59.00;-58.00;-57.00;-56.00;-55.00;-54.00;-53.00;-52.00;-51.00;-50.00;-49.00;-48.00;-47.00;-46.00;-45.00;-44.00;-43.00;-42.00;-41.00;-40.00;-39.00;-38.00;-37.00;-36.00;-35.00;-34.00;-33.00;-32.00;-31.00;-30.00;-29.00;-28.00;-27.00;-26.00;-25.00;-24.00;-23.00;-22.00;-21.00;-20.00;-19.00;-18.00;-17.00;-16.00;-15.00;-14.00;-13.00;-12.00;-11.00;-10.00;-9.00;-8.00;-7.00;-6.00;-5.00;-4.00;-3.00;-2.00;-1.00;0.00;1.00;2.00;3.00;4.00;5.00;6.00;7.00;8.00;9.00;10.00;11.00;12.00;13.00;14.00;15.00;16.00;17.00;18.00;19.00;20.00;21.00;22.00;23.00;24.00;25.00;26.00;27.00;28.00;29.00;30.00;31.00;32.00;33.00;34.00;35.00;36.00;37.00;38.00;39.00;40.00;41.00;42.00;43.00;44.00;45.00;46.00;47.00;48.00;49.00;50.00;51.00;52.00;53.00;54.00;55.00;56.00;57.00;58.00;59.00;60.00;61.00;62.00;63.00;64.00;65.00;66.00;67.00;68.00;69.00;70.00;71.00;72.00;73.00;74.00;75.00;76.00;77.00;78.00;79.00;80.00;81.00;82.00;83.00;84.00;85.00;
		REF_OVERSCAN_FACTOR=1.00
		SCAN_CURVETYPE=CROSSPLANE_PROFILE
		SCAN_DEPTH=150.00
		SCAN_OFFAXIS_INPLANE=0.00
		SCAN_OFFAXIS_CROSSPLANE=0.00
		SCAN_ANGLE=0.00
		SCAN_DIAGONAL=NOT_DIAGONAL
		SCAN_DIRECTION=POSITIVE
		MEAS_MEDIUM=WATER
		MEAS_PRESET=MEAS_CONTINUOUS_REFERENCE_SCAN
		MEAS_TIME=0.100
		MEAS_UNIT=A.U.
		INCLINATION_ANGLE=0.00
		PRESSURE=1013.25
		TEMPERATURE=20.00
		NORM_TEMPERATURE=20.00
		CORRECTION_FACTOR=1.0000
		EXPECTED_MAX_DOSE_RATE=3.00
		EPOM_DEPTH_SHIFT=0.2
		EPOM_MODE=SHIFT_PROTOCOL
		CORRECTIONS=SMOOTHED_CORR;CAX_CORR;INTERPOLATED_CORR;SYMMETRY_CORR;
		BEGIN_DATA
			-54.00		5.3268E+00
			-53.50		5.3941E+00
			-53.00		5.3528E+00
			-52.50		5.4554E+00
			-52.00		5.5538E+00
			-51.50		5.6403E+00
			-51.00		5.7299E+00
			-50.50		5.8379E+00
			-50.00		5.9434E+00
			-49.50		6.0433E+00
			-49.00		6.1440E+00
			-48.50		6.2759E+00
			-48.00		6.3996E+00
			-47.50		6.5122E+00
			-47.00		6.6312E+00
			-46.50		6.7397E+00
			-46.00		6.8470E+00
			-45.50		6.9685E+00
			-45.00		7.0975E+00
			-44.50		7.2308E+00
			-44.00		7.4160E+00
			-43.50		7.6058E+00
			-43.00		7.7731E+00
			-42.50		7.9381E+00
			-42.00		8.0729E+00
			-41.50		8.2020E+00
			-41.00		8.3981E+00
			-40.50		8.6150E+00
			-40.00		8.8015E+00
			-39.50		8.9637E+00
			-39.00		9.1619E+00
			-38.50		9.4225E+00
			-38.00		9.6886E+00
			-37.50		9.9539E+00
			-37.00		10.213E+00
			-36.50		10.436E+00
			-36.00		10.667E+00
			-35.50		10.988E+00
			-35.00		11.314E+00
			-34.50		11.699E+00
			-34.00		12.094E+00
			-33.50		12.568E+00
			-33.00		13.035E+00
			-32.50		13.578E+00
			-32.00		14.200E+00
			-31.50		14.912E+00
			-31.00		15.738E+00
			-30.50		16.639E+00
			-30.00		17.847E+00
			-29.50		19.153E+00
			-29.00		21.001E+00
			-28.50		22.898E+00
			-28.00		25.667E+00
			-27.50		28.526E+00
			-27.00		32.882E+00
			-26.50		37.604E+00
			-26.00		44.208E+00
			-25.50		51.480E+00
			-25.00		59.507E+00
			-24.50		68.357E+00
			-24.00		77.654E+00
			-23.50		87.523E+00
			-23.00		97.412E+00
			-22.50		107.65E+00
			-22.00		117.79E+00
			-21.50		127.40E+00
			-21.00		136.99E+00
			-20.50		145.86E+00
			-20.00		154.51E+00
			-19.50		160.86E+00
			-19.00		166.64E+00
			-18.50		171.22E+00
			-18.00		175.11E+00
			-17.50		178.51E+00
			-17.00		180.98E+00
			-16.50		183.10E+00
			-16.00		184.76E+00
			-15.50		186.39E+00
			-15.00		187.77E+00
			-14.50		189.12E+00
			-14.00		189.88E+00
			-13.50		190.58E+00
			-13.00		191.10E+00
			-12.50		191.60E+00
			-12.00		192.10E+00
			-11.50		192.63E+00
			-11.00		193.18E+00
			-10.50		193.76E+00
			-10.00		194.26E+00
			-9.50		194.63E+00
			-9.00		194.96E+00
			-8.50		195.25E+00
			-8.00		195.52E+00
			-7.50		195.73E+00
			-7.00		195.92E+00
			-6.50		196.06E+00
			-6.00		196.20E+00
			-5.50		196.29E+00
			-5.00		196.38E+00
			-4.50		196.43E+00
			-4.00		196.46E+00
			-3.50		196.49E+00
			-3.00		196.46E+00
			-2.50		196.45E+00
			-2.00		196.39E+00
			-1.50		196.35E+00
			-1.00		196.30E+00
			-0.50		196.26E+00
			0.00		196.26E+00
			0.50		196.26E+00
			1.00		196.30E+00
			1.50		196.35E+00
			2.00		196.39E+00
			2.50		196.45E+00
			3.00		196.46E+00
			3.50		196.49E+00
			4.00		196.46E+00
			4.50		196.43E+00
			5.00		196.38E+00
			5.50		196.29E+00
			6.00		196.20E+00
			6.50		196.06E+00
			7.00		195.92E+00
			7.50		195.73E+00
			8.00		195.52E+00
			8.50		195.25E+00
			9.00		194.96E+00
			9.50		194.63E+00
			10.00		194.26E+00
			10.50		193.76E+00
			11.00		193.18E+00
			11.50		192.63E+00
			12.00		192.10E+00
			12.50		191.60E+00
			13.00		191.10E+00
			13.50		190.58E+00
			14.00		189.88E+00
			14.50		189.12E+00
			15.00		187.77E+00
			15.50		186.39E+00
			16.00		184.76E+00
			16.50		183.10E+00
			17.00		180.98E+00
			17.50		178.51E+00
			18.00		175.11E+00
			18.50		171.22E+00
			19.00		166.64E+00
			19.50		160.86E+00
			20.00		154.51E+00
			20.50		145.86E+00
			21.00		136.99E+00
			21.50		127.40E+00
			22.00		117.79E+00
			22.50		107.65E+00
			23.00		97.412E+00
			23.50		87.523E+00
			24.00		77.654E+00
			24.50		68.357E+00
			25.00		59.507E+00
			25.50		51.480E+00
			26.00		44.208E+00
			26.50		37.604E+00
			27.00		32.882E+00
			27.50		28.526E+00
			28.00		25.667E+00
			28.50		22.898E+00
			29.00		21.001E+00
			29.50		19.153E+00
			30.00		17.847E+00
			30.50		16.639E+00
			31.00		15.738E+00
			31.50		14.912E+00
			32.00		14.200E+00
			32.50		13.578E+00
			33.00		13.035E+00
			33.50		12.568E+00
			34.00		12.094E+00
			34.50		11.699E+00
			35.00		11.314E+00
			35.50		10.988E+00
			36.00		10.667E+00
			36.50		10.436E+00
			37.00		10.213E+00
			37.50		9.9539E+00
			38.00		9.6886E+00
			38.50		9.4225E+00
			39.00		9.1619E+00
			39.50		8.9637E+00
			40.00		8.8015E+00
			40.50		8.6150E+00
			41.00		8.3981E+00
			41.50		8.2020E+00
			42.00		8.0729E+00
			42.50		7.9381E+00
			43.00		7.7731E+00
			43.50		7.6058E+00
			44.00		7.4160E+00
			44.50		7.2308E+00
			45.00		7.0975E+00
			45.50		6.9685E+00
			46.00		6.8470E+00
			46.50		6.7397E+00
			47.00		6.6312E+00
			47.50		6.5122E+00
			48.00		6.3996E+00
			48.50		6.2759E+00
			49.00		6.1440E+00
			49.50		6.0433E+00
			50.00		5.9434E+00
			50.50		5.8379E+00
			51.00		5.7299E+00
			51.50		5.6403E+00
			52.00		5.5538E+00
			52.50		5.4554E+00
			53.00		5.3528E+00
			53.50		5.3941E+00
			54.00		5.3268E+00
		END_DATA
	END_SCAN  4
	BEGIN_SCAN  5
		TASK_NAME=tba PDD Profiles
		PROGRAM=WaterTankScans
		COMMENT=Gemelli
		MEAS_DATE=08-Feb-2021 09:38:10
		LINAC=MRIdian
		MODALITY=X
		ISOCENTER=900.00
		INPLANE_AXIS=Y
		CROSSPLANE_AXIS=X
		DEPTH_AXIS=Depth
		INPLANE_AXIS_DIR=TARGET_GUN
		CROSSPLANE_AXIS_DIR=LEFT_RIGHT
		DEPTH_AXIS_DIR=UP_DOWN
		ENERGY=6.00
		NOMINAL_DMAX=15.00
		SSD=850.00
		SCD=450.00
		WEDGE_ANGLE=0.00
		FIELD_INPLANE=42.00
		FIELD_CROSSPLANE=42.00
		FIELD_TYPE=RECTANGULAR
		GANTRY=0.00
		GANTRY_UPRIGHT_POSITION=0
		GANTRY_ROTATION=CW
		COLL_ANGLE=0.00
		COLL_OFFSET_INPLANE=0.00
		COLL_OFFSET_CROSSPLANE=0.00
		SCAN_DEVICE=BeamScan
		SCAN_DEVICE_SETUP=BARA_LEFT_RIGHT
		ELECTROMETER=BeamScan
		RANGE_FIELD=LOW
		RANGE_REFERENCE=MEDIUM
		DETECTOR=THIMBLE_CHAMBER
		DETECTOR_RADIUS=2.40
		DETECTOR_NAME=A28MR
		DETECTOR_SN=-
		DETECTOR_CALIBRATION=588000000.00
		DETECTOR_IS_CALIBRATED=0
		DETECTOR_REFERENCE=THIMBLE_CHAMBER
		DETECTOR_REFERENCE_RADIUS=2.75
		DETECTOR_REFERENCE_NAME=A28MR
		DETECTOR_REFERENCE_SN=â€”
		DETECTOR_REFERENCE_IS_CALIBRATED=0
		DETECTOR_REFERENCE_CALIBRATION=303000000.00
		DETECTOR_HV=300.0
		DETECTOR_REFERENCE_HV=300.0
		DETECTOR_ORIENTATION=HORIZONTAL
		FILTER=FFF
		SCAN_SPEED_PROFILE=10.00
		SCAN_PROF_SPEED_DEP=DEPTH
		SCAN_SPEED_PDD=0.00
		SCAN_PDD_SPEED_DEP=ENERGY
		REF_FIELD_DEPTH=50.00
		REF_FIELD_DEFINED=ISOCENTER
		REF_FIELD_INPLANE=100.00
		REF_FIELD_CROSSPLANE=100.00
		REF_SCAN_POSITIONS=-85.00;-84.00;-83.00;-82.00;-81.00;-80.00;-79.00;-78.00;-77.00;-76.00;-75.00;-74.00;-73.00;-72.00;-71.00;-70.00;-69.00;-68.00;-67.00;-66.00;-65.00;-64.00;-63.00;-62.00;-61.00;-60.00;-59.00;-58.00;-57.00;-56.00;-55.00;-54.00;-53.00;-52.00;-51.00;-50.00;-49.00;-48.00;-47.00;-46.00;-45.00;-44.00;-43.00;-42.00;-41.00;-40.00;-39.00;-38.00;-37.00;-36.00;-35.00;-34.00;-33.00;-32.00;-31.00;-30.00;-29.00;-28.00;-27.00;-26.00;-25.00;-24.00;-23.00;-22.00;-21.00;-20.00;-19.00;-18.00;-17.00;-16.00;-15.00;-14.00;-13.00;-12.00;-11.00;-10.00;-9.00;-8.00;-7.00;-6.00;-5.00;-4.00;-3.00;-2.00;-1.00;0.00;1.00;2.00;3.00;4.00;5.00;6.00;7.00;8.00;9.00;10.00;11.00;12.00;13.00;14.00;15.00;16.00;17.00;18.00;19.00;20.00;21.00;22.00;23.00;24.00;25.00;26.00;27.00;28.00;29.00;30.00;31.00;32.00;33.00;34.00;35.00;36.00;37.00;38.00;39.00;40.00;41.00;42.00;43.00;44.00;45.00;46.00;47.00;48.00;49.00;50.00;51.00;52.00;53.00;54.00;55.00;56.00;57.00;58.00;59.00;60.00;61.00;62.00;63.00;64.00;65.00;66.00;67.00;68.00;69.00;70.00;71.00;72.00;73.00;74.00;75.00;76.00;77.00;78.00;79.00;80.00;81.00;82.00;83.00;84.00;85.00;
		REF_OVERSCAN_FACTOR=1.00
		SCAN_CURVETYPE=CROSSPLANE_PROFILE
		SCAN_DEPTH=200.00
		SCAN_OFFAXIS_INPLANE=0.00
		SCAN_OFFAXIS_CROSSPLANE=0.00
		SCAN_ANGLE=0.00
		SCAN_DIAGONAL=NOT_DIAGONAL
		SCAN_DIRECTION=POSITIVE
		MEAS_MEDIUM=WATER
		MEAS_PRESET=MEAS_CONTINUOUS_REFERENCE_SCAN
		MEAS_TIME=0.100
		MEAS_UNIT=A.U.
		INCLINATION_ANGLE=0.00
		PRESSURE=1013.25
		TEMPERATURE=20.00
		NORM_TEMPERATURE=20.00
		CORRECTION_FACTOR=1.0000
		EXPECTED_MAX_DOSE_RATE=3.00
		EPOM_DEPTH_SHIFT=0.2
		EPOM_MODE=SHIFT_PROTOCOL
		CORRECTIONS=SMOOTHED_CORR;CAX_CORR;INTERPOLATED_CORR;SYMMETRY_CORR;
		BEGIN_DATA
			-54.00		4.8867E+00
			-53.50		4.9368E+00
			-53.00		4.9904E+00
			-52.50		4.9735E+00
			-52.00		5.0250E+00
			-51.50		5.1042E+00
			-51.00		5.1885E+00
			-50.50		5.2622E+00
			-50.00		5.3342E+00
			-49.50		5.4546E+00
			-49.00		5.5868E+00
			-48.50		5.6740E+00
			-48.00		5.7305E+00
			-47.50		5.7864E+00
			-47.00		5.8738E+00
			-46.50		5.9866E+00
			-46.00		6.1322E+00
			-45.50		6.2724E+00
			-45.00		6.3805E+00
			-44.50		6.4792E+00
			-44.00		6.5649E+00
			-43.50		6.6584E+00
			-43.00		6.8180E+00
			-42.50		6.9811E+00
			-42.00		7.1089E+00
			-41.50		7.2321E+00
			-41.00		7.3758E+00
			-40.50		7.5414E+00
			-40.00		7.7079E+00
			-39.50		7.8496E+00
			-39.00		7.9994E+00
			-38.50		8.2175E+00
			-38.00		8.4269E+00
			-37.50		8.5840E+00
			-37.00		8.7435E+00
			-36.50		9.0109E+00
			-36.00		9.3029E+00
			-35.50		9.5932E+00
			-35.00		9.8799E+00
			-34.50		10.197E+00
			-34.00		10.555E+00
			-33.50		10.989E+00
			-33.00		11.462E+00
			-32.50		11.990E+00
			-32.00		12.636E+00
			-31.50		13.351E+00
			-31.00		14.253E+00
			-30.50		15.230E+00
			-30.00		16.654E+00
			-29.50		18.190E+00
			-29.00		20.333E+00
			-28.50		22.606E+00
			-28.00		25.944E+00
			-27.50		29.606E+00
			-27.00		34.311E+00
			-26.50		39.635E+00
			-26.00		45.356E+00
			-25.50		51.501E+00
			-25.00		58.074E+00
			-24.50		65.297E+00
			-24.00		72.290E+00
			-23.50		78.902E+00
			-23.00		85.604E+00
			-22.50		92.396E+00
			-22.00		99.111E+00
			-21.50		104.94E+00
			-21.00		110.53E+00
			-20.50		114.37E+00
			-20.00		117.98E+00
			-19.50		121.33E+00
			-19.00		124.36E+00
			-18.50		126.74E+00
			-18.00		128.49E+00
			-17.50		130.02E+00
			-17.00		131.23E+00
			-16.50		132.39E+00
			-16.00		133.12E+00
			-15.50		133.84E+00
			-15.00		134.62E+00
			-14.50		135.37E+00
			-14.00		135.83E+00
			-13.50		136.24E+00
			-13.00		136.63E+00
			-12.50		136.98E+00
			-12.00		137.31E+00
			-11.50		137.61E+00
			-11.00		137.90E+00
			-10.50		138.18E+00
			-10.00		138.43E+00
			-9.50		138.70E+00
			-9.00		138.95E+00
			-8.50		139.17E+00
			-8.00		139.37E+00
			-7.50		139.52E+00
			-7.00		139.65E+00
			-6.50		139.74E+00
			-6.00		139.82E+00
			-5.50		139.85E+00
			-5.00		139.88E+00
			-4.50		139.92E+00
			-4.00		139.95E+00
			-3.50		139.99E+00
			-3.00		140.06E+00
			-2.50		140.15E+00
			-2.00		140.26E+00
			-1.50		140.36E+00
			-1.00		140.44E+00
			-0.50		140.51E+00
			0.00		140.52E+00
			0.50		140.51E+00
			1.00		140.44E+00
			1.50		140.36E+00
			2.00		140.26E+00
			2.50		140.15E+00
			3.00		140.06E+00
			3.50		139.99E+00
			4.00		139.95E+00
			4.50		139.92E+00
			5.00		139.88E+00
			5.50		139.85E+00
			6.00		139.82E+00
			6.50		139.74E+00
			7.00		139.65E+00
			7.50		139.52E+00
			8.00		139.37E+00
			8.50		139.17E+00
			9.00		138.95E+00
			9.50		138.70E+00
			10.00		138.43E+00
			10.50		138.18E+00
			11.00		137.90E+00
			11.50		137.61E+00
			12.00		137.31E+00
			12.50		136.98E+00
			13.00		136.63E+00
			13.50		136.24E+00
			14.00		135.83E+00
			14.50		135.37E+00
			15.00		134.62E+00
			15.50		133.84E+00
			16.00		133.12E+00
			16.50		132.39E+00
			17.00		131.23E+00
			17.50		130.02E+00
			18.00		128.49E+00
			18.50		126.74E+00
			19.00		124.36E+00
			19.50		121.33E+00
			20.00		117.98E+00
			20.50		114.37E+00
			21.00		110.53E+00
			21.50		104.94E+00
			22.00		99.111E+00
			22.50		92.396E+00
			23.00		85.604E+00
			23.50		78.902E+00
			24.00		72.290E+00
			24.50		65.297E+00
			25.00		58.074E+00
			25.50		51.501E+00
			26.00		45.356E+00
			26.50		39.635E+00
			27.00		34.311E+00
			27.50		29.606E+00
			28.00		25.944E+00
			28.50		22.606E+00
			29.00		20.333E+00
			29.50		18.190E+00
			30.00		16.654E+00
			30.50		15.230E+00
			31.00		14.253E+00
			31.50		13.351E+00
			32.00		12.636E+00
			32.50		11.990E+00
			33.00		11.462E+00
			33.50		10.989E+00
			34.00		10.555E+00
			34.50		10.197E+00
			35.00		9.8799E+00
			35.50		9.5932E+00
			36.00		9.3029E+00
			36.50		9.0109E+00
			37.00		8.7435E+00
			37.50		8.5840E+00
			38.00		8.4269E+00
			38.50		8.2175E+00
			39.00		7.9994E+00
			39.50		7.8496E+00
			40.00		7.7079E+00
			40.50		7.5414E+00
			41.00		7.3758E+00
			41.50		7.2321E+00
			42.00		7.1089E+00
			42.50		6.9811E+00
			43.00		6.8180E+00
			43.50		6.6584E+00
			44.00		6.5649E+00
			44.50		6.4792E+00
			45.00		6.3805E+00
			45.50		6.2724E+00
			46.00		6.1322E+00
			46.50		5.9866E+00
			47.00		5.8738E+00
			47.50		5.7864E+00
			48.00		5.7305E+00
			48.50		5.6740E+00
			49.00		5.5868E+00
			49.50		5.4546E+00
			50.00		5.3342E+00
			50.50		5.2622E+00
			51.00		5.1885E+00
			51.50		5.1042E+00
			52.00		5.0250E+00
			52.50		4.9735E+00
			53.00		4.9904E+00
			53.50		4.9368E+00
			54.00		4.8867E+00
		END_DATA
	END_SCAN  5
	BEGIN_SCAN  6
		TASK_NAME=tba PDD Profiles
		PROGRAM=WaterTankScans
		COMMENT=Gemelli
		MEAS_DATE=08-Feb-2021 09:38:10
		LINAC=MRIdian
		MODALITY=X
		ISOCENTER=900.00
		INPLANE_AXIS=Y
		CROSSPLANE_AXIS=X
		DEPTH_AXIS=Depth
		INPLANE_AXIS_DIR=TARGET_GUN
		CROSSPLANE_AXIS_DIR=LEFT_RIGHT
		DEPTH_AXIS_DIR=UP_DOWN
		ENERGY=6.00
		NOMINAL_DMAX=15.00
		SSD=850.00
		SCD=450.00
		WEDGE_ANGLE=0.00
		FIELD_INPLANE=42.00
		FIELD_CROSSPLANE=42.00
		FIELD_TYPE=RECTANGULAR
		GANTRY=0.00
		GANTRY_UPRIGHT_POSITION=0
		GANTRY_ROTATION=CW
		COLL_ANGLE=0.00
		COLL_OFFSET_INPLANE=0.00
		COLL_OFFSET_CROSSPLANE=0.00
		SCAN_DEVICE=BeamScan
		SCAN_DEVICE_SETUP=BARA_LEFT_RIGHT
		ELECTROMETER=BeamScan
		RANGE_FIELD=LOW
		RANGE_REFERENCE=MEDIUM
		DETECTOR=THIMBLE_CHAMBER
		DETECTOR_RADIUS=2.40
		DETECTOR_NAME=A28MR
		DETECTOR_SN=-
		DETECTOR_CALIBRATION=588000000.00
		DETECTOR_IS_CALIBRATED=0
		DETECTOR_REFERENCE=THIMBLE_CHAMBER
		DETECTOR_REFERENCE_RADIUS=2.75
		DETECTOR_REFERENCE_NAME=A28MR
		DETECTOR_REFERENCE_SN=â€”
		DETECTOR_REFERENCE_IS_CALIBRATED=0
		DETECTOR_REFERENCE_CALIBRATION=303000000.00
		DETECTOR_HV=300.0
		DETECTOR_REFERENCE_HV=300.0
		DETECTOR_ORIENTATION=HORIZONTAL
		FILTER=FFF
		SCAN_SPEED_PROFILE=10.00
		SCAN_PROF_SPEED_DEP=DEPTH
		SCAN_SPEED_PDD=0.00
		SCAN_PDD_SPEED_DEP=ENERGY
		REF_FIELD_DEPTH=50.00
		REF_FIELD_DEFINED=ISOCENTER
		REF_FIELD_INPLANE=100.00
		REF_FIELD_CROSSPLANE=100.00
		REF_SCAN_POSITIONS=-85.00;-84.00;-83.00;-82.00;-81.00;-80.00;-79.00;-78.00;-77.00;-76.00;-75.00;-74.00;-73.00;-72.00;-71.00;-70.00;-69.00;-68.00;-67.00;-66.00;-65.00;-64.00;-63.00;-62.00;-61.00;-60.00;-59.00;-58.00;-57.00;-56.00;-55.00;-54.00;-53.00;-52.00;-51.00;-50.00;-49.00;-48.00;-47.00;-46.00;-45.00;-44.00;-43.00;-42.00;-41.00;-40.00;-39.00;-38.00;-37.00;-36.00;-35.00;-34.00;-33.00;-32.00;-31.00;-30.00;-29.00;-28.00;-27.00;-26.00;-25.00;-24.00;-23.00;-22.00;-21.00;-20.00;-19.00;-18.00;-17.00;-16.00;-15.00;-14.00;-13.00;-12.00;-11.00;-10.00;-9.00;-8.00;-7.00;-6.00;-5.00;-4.00;-3.00;-2.00;-1.00;0.00;1.00;2.00;3.00;4.00;5.00;6.00;7.00;8.00;9.00;10.00;11.00;12.00;13.00;14.00;15.00;16.00;17.00;18.00;19.00;20.00;21.00;22.00;23.00;24.00;25.00;26.00;27.00;28.00;29.00;30.00;31.00;32.00;33.00;34.00;35.00;36.00;37.00;38.00;39.00;40.00;41.00;42.00;43.00;44.00;45.00;46.00;47.00;48.00;49.00;50.00;51.00;52.00;53.00;54.00;55.00;56.00;57.00;58.00;59.00;60.00;61.00;62.00;63.00;64.00;65.00;66.00;67.00;68.00;69.00;70.00;71.00;72.00;73.00;74.00;75.00;76.00;77.00;78.00;79.00;80.00;81.00;82.00;83.00;84.00;85.00;
		REF_OVERSCAN_FACTOR=1.00
		SCAN_CURVETYPE=CROSSPLANE_PROFILE
		SCAN_DEPTH=250.00
		SCAN_OFFAXIS_INPLANE=0.00
		SCAN_OFFAXIS_CROSSPLANE=0.00
		SCAN_ANGLE=0.00
		SCAN_DIAGONAL=NOT_DIAGONAL
		SCAN_DIRECTION=POSITIVE
		MEAS_MEDIUM=WATER
		MEAS_PRESET=MEAS_CONTINUOUS_REFERENCE_SCAN
		MEAS_TIME=0.100
		MEAS_UNIT=A.U.
		INCLINATION_ANGLE=0.00
		PRESSURE=1013.25
		TEMPERATURE=20.00
		NORM_TEMPERATURE=20.00
		CORRECTION_FACTOR=1.0000
		EXPECTED_MAX_DOSE_RATE=3.00
		EPOM_DEPTH_SHIFT=0.2
		EPOM_MODE=SHIFT_PROTOCOL
		CORRECTIONS=SMOOTHED_CORR;CAX_CORR;INTERPOLATED_CORR;SYMMETRY_CORR;
		BEGIN_DATA
			-54.00		4.1221E+00
			-53.50		4.1765E+00
			-53.00		4.2572E+00
			-52.50		4.3501E+00
			-52.00		4.3314E+00
			-51.50		4.3812E+00
			-51.00		4.4453E+00
			-50.50		4.5233E+00
			-50.00		4.5954E+00
			-49.50		4.6602E+00
			-49.00		4.7236E+00
			-48.50		4.7764E+00
			-48.00		4.8312E+00
			-47.50		4.9181E+00
			-47.00		5.0071E+00
			-46.50		5.1031E+00
			-46.00		5.1992E+00
			-45.50		5.2942E+00
			-45.00		5.3838E+00
			-44.50		5.4556E+00
			-44.00		5.5286E+00
			-43.50		5.6224E+00
			-43.00		5.7304E+00
			-42.50		5.8491E+00
			-42.00		5.9735E+00
			-41.50		6.0826E+00
			-41.00		6.1774E+00
			-40.50		6.2866E+00
			-40.00		6.4444E+00
			-39.50		6.6051E+00
			-39.00		6.7443E+00
			-38.50		6.8786E+00
			-38.00		7.0411E+00
			-37.50		7.2165E+00
			-37.00		7.3868E+00
			-36.50		7.5568E+00
			-36.00		7.7860E+00
			-35.50		8.0359E+00
			-35.00		8.3327E+00
			-34.50		8.6984E+00
			-34.00		9.0965E+00
			-33.50		9.5430E+00
			-33.00		10.017E+00
			-32.50		10.651E+00
			-32.00		11.313E+00
			-31.50		12.212E+00
			-31.00		13.141E+00
			-30.50		14.463E+00
			-30.00		15.865E+00
			-29.50		17.995E+00
			-29.00		20.299E+00
			-28.50		23.344E+00
			-28.00		26.737E+00
			-27.50		30.623E+00
			-27.00		34.861E+00
			-26.50		39.146E+00
			-26.00		43.685E+00
			-25.50		48.355E+00
			-25.00		53.215E+00
			-24.50		58.074E+00
			-24.00		62.889E+00
			-23.50		67.626E+00
			-23.00		71.734E+00
			-22.50		75.776E+00
			-22.00		79.381E+00
			-21.50		82.792E+00
			-21.00		85.378E+00
			-20.50		87.769E+00
			-20.00		89.666E+00
			-19.50		91.156E+00
			-19.00		92.536E+00
			-18.50		93.639E+00
			-18.00		94.533E+00
			-17.50		95.117E+00
			-17.00		95.690E+00
			-16.50		96.102E+00
			-16.00		96.512E+00
			-15.50		96.921E+00
			-15.00		97.326E+00
			-14.50		97.689E+00
			-14.00		98.046E+00
			-13.50		98.344E+00
			-13.00		98.629E+00
			-12.50		98.873E+00
			-12.00		99.095E+00
			-11.50		99.300E+00
			-11.00		99.488E+00
			-10.50		99.676E+00
			-10.00		99.850E+00
			-9.50		100.03E+00
			-9.00		100.19E+00
			-8.50		100.36E+00
			-8.00		100.49E+00
			-7.50		100.62E+00
			-7.00		100.71E+00
			-6.50		100.81E+00
			-6.00		100.87E+00
			-5.50		100.92E+00
			-5.00		100.96E+00
			-4.50		100.99E+00
			-4.00		101.00E+00
			-3.50		101.03E+00
			-3.00		101.04E+00
			-2.50		101.06E+00
			-2.00		101.06E+00
			-1.50		101.07E+00
			-1.00		101.08E+00
			-0.50		101.08E+00
			0.00		101.09E+00
			0.50		101.08E+00
			1.00		101.08E+00
			1.50		101.07E+00
			2.00		101.06E+00
			2.50		101.06E+00
			3.00		101.04E+00
			3.50		101.03E+00
			4.00		101.00E+00
			4.50		100.99E+00
			5.00		100.96E+00
			5.50		100.92E+00
			6.00		100.87E+00
			6.50		100.81E+00
			7.00		100.71E+00
			7.50		100.62E+00
			8.00		100.49E+00
			8.50		100.36E+00
			9.00		100.19E+00
			9.50		100.03E+00
			10.00		99.850E+00
			10.50		99.676E+00
			11.00		99.488E+00
			11.50		99.300E+00
			12.00		99.095E+00
			12.50		98.873E+00
			13.00		98.629E+00
			13.50		98.344E+00
			14.00		98.046E+00
			14.50		97.689E+00
			15.00		97.326E+00
			15.50		96.921E+00
			16.00		96.512E+00
			16.50		96.102E+00
			17.00		95.690E+00
			17.50		95.117E+00
			18.00		94.533E+00
			18.50		93.639E+00
			19.00		92.536E+00
			19.50		91.156E+00
			20.00		89.666E+00
			20.50		87.769E+00
			21.00		85.378E+00
			21.50		82.792E+00
			22.00		79.381E+00
			22.50		75.776E+00
			23.00		71.734E+00
			23.50		67.626E+00
			24.00		62.889E+00
			24.50		58.074E+00
			25.00		53.215E+00
			25.50		48.355E+00
			26.00		43.685E+00
			26.50		39.146E+00
			27.00		34.861E+00
			27.50		30.623E+00
			28.00		26.737E+00
			28.50		23.344E+00
			29.00		20.299E+00
			29.50		17.995E+00
			30.00		15.865E+00
			30.50		14.463E+00
			31.00		13.141E+00
			31.50		12.212E+00
			32.00		11.313E+00
			32.50		10.651E+00
			33.00		10.017E+00
			33.50		9.5430E+00
			34.00		9.0965E+00
			34.50		8.6984E+00
			35.00		8.3327E+00
			35.50		8.0359E+00
			36.00		7.7860E+00
			36.50		7.5568E+00
			37.00		7.3868E+00
			37.50		7.2165E+00
			38.00		7.0411E+00
			38.50		6.8786E+00
			39.00		6.7443E+00
			39.50		6.6051E+00
			40.00		6.4444E+00
			40.50		6.2866E+00
			41.00		6.1774E+00
			41.50		6.0826E+00
			42.00		5.9735E+00
			42.50		5.8491E+00
			43.00		5.7304E+00
			43.50		5.6224E+00
			44.00		5.5286E+00
			44.50		5.4556E+00
			45.00		5.3838E+00
			45.50		5.2942E+00
			46.00		5.1992E+00
			46.50		5.1031E+00
			47.00		5.0071E+00
			47.50		4.9181E+00
			48.00		4.8312E+00
			48.50		4.7764E+00
			49.00		4.7236E+00
			49.50		4.6602E+00
			50.00		4.5954E+00
			50.50		4.5233E+00
			51.00		4.4453E+00
			51.50		4.3812E+00
			52.00		4.3314E+00
			52.50		4.3501E+00
			53.00		4.2572E+00
			53.50		4.1765E+00
			54.00		4.1221E+00
		END_DATA
	END_SCAN  6
	BEGIN_SCAN  7
		TASK_NAME=tba PDD Profiles
		PROGRAM=WaterTankScans
		COMMENT=Gemelli
		MEAS_DATE=08-Feb-2021 09:38:10
		LINAC=MRIdian
		MODALITY=X
		ISOCENTER=900.00
		INPLANE_AXIS=Y
		CROSSPLANE_AXIS=X
		DEPTH_AXIS=Depth
		INPLANE_AXIS_DIR=TARGET_GUN
		CROSSPLANE_AXIS_DIR=LEFT_RIGHT
		DEPTH_AXIS_DIR=UP_DOWN
		ENERGY=6.00
		NOMINAL_DMAX=15.00
		SSD=850.00
		SCD=450.00
		WEDGE_ANGLE=0.00
		FIELD_INPLANE=42.00
		FIELD_CROSSPLANE=42.00
		FIELD_TYPE=RECTANGULAR
		GANTRY=0.00
		GANTRY_UPRIGHT_POSITION=0
		GANTRY_ROTATION=CW
		COLL_ANGLE=0.00
		COLL_OFFSET_INPLANE=0.00
		COLL_OFFSET_CROSSPLANE=0.00
		SCAN_DEVICE=BeamScan
		SCAN_DEVICE_SETUP=BARA_LEFT_RIGHT
		ELECTROMETER=BeamScan
		RANGE_FIELD=LOW
		RANGE_REFERENCE=MEDIUM
		DETECTOR=THIMBLE_CHAMBER
		DETECTOR_RADIUS=2.40
		DETECTOR_NAME=A28MR
		DETECTOR_SN=-
		DETECTOR_CALIBRATION=588000000.00
		DETECTOR_IS_CALIBRATED=0
		DETECTOR_REFERENCE=THIMBLE_CHAMBER
		DETECTOR_REFERENCE_RADIUS=2.75
		DETECTOR_REFERENCE_NAME=A28MR
		DETECTOR_REFERENCE_SN=â€”
		DETECTOR_REFERENCE_IS_CALIBRATED=0
		DETECTOR_REFERENCE_CALIBRATION=303000000.00
		DETECTOR_HV=300.0
		DETECTOR_REFERENCE_HV=300.0
		DETECTOR_ORIENTATION=HORIZONTAL
		FILTER=FFF
		SCAN_SPEED_PROFILE=10.00
		SCAN_PROF_SPEED_DEP=DEPTH
		SCAN_SPEED_PDD=0.00
		SCAN_PDD_SPEED_DEP=ENERGY
		REF_FIELD_DEPTH=50.00
		REF_FIELD_DEFINED=ISOCENTER
		REF_FIELD_INPLANE=100.00
		REF_FIELD_CROSSPLANE=100.00
		REF_SCAN_POSITIONS=-85.00;-84.00;-83.00;-82.00;-81.00;-80.00;-79.00;-78.00;-77.00;-76.00;-75.00;-74.00;-73.00;-72.00;-71.00;-70.00;-69.00;-68.00;-67.00;-66.00;-65.00;-64.00;-63.00;-62.00;-61.00;-60.00;-59.00;-58.00;-57.00;-56.00;-55.00;-54.00;-53.00;-52.00;-51.00;-50.00;-49.00;-48.00;-47.00;-46.00;-45.00;-44.00;-43.00;-42.00;-41.00;-40.00;-39.00;-38.00;-37.00;-36.00;-35.00;-34.00;-33.00;-32.00;-31.00;-30.00;-29.00;-28.00;-27.00;-26.00;-25.00;-24.00;-23.00;-22.00;-21.00;-20.00;-19.00;-18.00;-17.00;-16.00;-15.00;-14.00;-13.00;-12.00;-11.00;-10.00;-9.00;-8.00;-7.00;-6.00;-5.00;-4.00;-3.00;-2.00;-1.00;0.00;1.00;2.00;3.00;4.00;5.00;6.00;7.00;8.00;9.00;10.00;11.00;12.00;13.00;14.00;15.00;16.00;17.00;18.00;19.00;20.00;21.00;22.00;23.00;24.00;25.00;26.00;27.00;28.00;29.00;30.00;31.00;32.00;33.00;34.00;35.00;36.00;37.00;38.00;39.00;40.00;41.00;42.00;43.00;44.00;45.00;46.00;47.00;48.00;49.00;50.00;51.00;52.00;53.00;54.00;55.00;56.00;57.00;58.00;59.00;60.00;61.00;62.00;63.00;64.00;65.00;66.00;67.00;68.00;69.00;70.00;71.00;72.00;73.00;74.00;75.00;76.00;77.00;78.00;79.00;80.00;81.00;82.00;83.00;84.00;85.00;
		REF_OVERSCAN_FACTOR=1.00
		SCAN_CURVETYPE=CROSSPLANE_PROFILE
		SCAN_DEPTH=285.00
		SCAN_OFFAXIS_INPLANE=0.00
		SCAN_OFFAXIS_CROSSPLANE=0.00
		SCAN_ANGLE=0.00
		SCAN_DIAGONAL=NOT_DIAGONAL
		SCAN_DIRECTION=POSITIVE
		MEAS_MEDIUM=WATER
		MEAS_PRESET=MEAS_CONTINUOUS_REFERENCE_SCAN
		MEAS_TIME=0.100
		MEAS_UNIT=A.U.
		INCLINATION_ANGLE=0.00
		PRESSURE=1013.25
		TEMPERATURE=20.00
		NORM_TEMPERATURE=20.00
		CORRECTION_FACTOR=1.0000
		EXPECTED_MAX_DOSE_RATE=3.00
		EPOM_DEPTH_SHIFT=0.2
		EPOM_MODE=SHIFT_PROTOCOL
		CORRECTIONS=SMOOTHED_CORR;CAX_CORR;INTERPOLATED_CORR;SYMMETRY_CORR;
		BEGIN_DATA
			-54.50		3.6112E+00
			-54.00		3.6387E+00
			-53.50		3.6691E+00
			-53.00		3.7433E+00
			-52.50		3.8175E+00
			-52.00		3.7899E+00
			-51.50		3.8192E+00
			-51.00		3.8671E+00
			-50.50		3.9267E+00
			-50.00		3.9873E+00
			-49.50		4.0497E+00
			-49.00		4.1226E+00
			-48.50		4.1993E+00
			-48.00		4.2547E+00
			-47.50		4.2903E+00
			-47.00		4.3441E+00
			-46.50		4.4296E+00
			-46.00		4.5110E+00
			-45.50		4.5771E+00
			-45.00		4.6439E+00
			-44.50		4.7143E+00
			-44.00		4.7993E+00
			-43.50		4.8835E+00
			-43.00		4.9686E+00
			-42.50		5.0786E+00
			-42.00		5.1947E+00
			-41.50		5.2980E+00
			-41.00		5.3941E+00
			-40.50		5.4927E+00
			-40.00		5.6045E+00
			-39.50		5.7364E+00
			-39.00		5.8981E+00
			-38.50		6.0584E+00
			-38.00		6.1813E+00
			-37.50		6.2976E+00
			-37.00		6.4578E+00
			-36.50		6.6403E+00
			-36.00		6.8730E+00
			-35.50		7.1795E+00
			-35.00		7.4694E+00
			-34.50		7.7754E+00
			-34.00		8.1819E+00
			-33.50		8.7090E+00
			-33.00		9.2923E+00
			-32.50		9.9387E+00
			-32.00		10.667E+00
			-31.50		11.628E+00
			-31.00		12.773E+00
			-30.50		14.201E+00
			-30.00		15.840E+00
			-29.50		17.969E+00
			-29.00		20.583E+00
			-28.50		23.364E+00
			-28.00		26.265E+00
			-27.50		29.599E+00
			-27.00		33.373E+00
			-26.50		37.193E+00
			-26.00		41.145E+00
			-25.50		45.069E+00
			-25.00		48.866E+00
			-24.50		52.653E+00
			-24.00		56.193E+00
			-23.50		59.456E+00
			-23.00		62.427E+00
			-22.50		65.150E+00
			-22.00		67.311E+00
			-21.50		69.332E+00
			-21.00		71.335E+00
			-20.50		73.098E+00
			-20.00		74.301E+00
			-19.50		75.186E+00
			-19.00		75.939E+00
			-18.50		76.521E+00
			-18.00		77.029E+00
			-17.50		77.419E+00
			-17.00		77.801E+00
			-16.50		78.188E+00
			-16.00		78.539E+00
			-15.50		78.831E+00
			-15.00		79.105E+00
			-14.50		79.357E+00
			-14.00		79.585E+00
			-13.50		79.796E+00
			-13.00		79.974E+00
			-12.50		80.148E+00
			-12.00		80.294E+00
			-11.50		80.439E+00
			-11.00		80.573E+00
			-10.50		80.698E+00
			-10.00		80.821E+00
			-9.50		80.929E+00
			-9.00		81.029E+00
			-8.50		81.113E+00
			-8.00		81.176E+00
			-7.50		81.229E+00
			-7.00		81.264E+00
			-6.50		81.295E+00
			-6.00		81.326E+00
			-5.50		81.360E+00
			-5.00		81.411E+00
			-4.50		81.464E+00
			-4.00		81.534E+00
			-3.50		81.601E+00
			-3.00		81.669E+00
			-2.50		81.730E+00
			-2.00		81.781E+00
			-1.50		81.822E+00
			-1.00		81.852E+00
			-0.50		81.868E+00
			0.00		81.875E+00
			0.50		81.868E+00
			1.00		81.852E+00
			1.50		81.822E+00
			2.00		81.781E+00
			2.50		81.730E+00
			3.00		81.669E+00
			3.50		81.601E+00
			4.00		81.534E+00
			4.50		81.464E+00
			5.00		81.411E+00
			5.50		81.360E+00
			6.00		81.326E+00
			6.50		81.295E+00
			7.00		81.264E+00
			7.50		81.229E+00
			8.00		81.176E+00
			8.50		81.113E+00
			9.00		81.029E+00
			9.50		80.929E+00
			10.00		80.821E+00
			10.50		80.698E+00
			11.00		80.573E+00
			11.50		80.439E+00
			12.00		80.294E+00
			12.50		80.148E+00
			13.00		79.974E+00
			13.50		79.796E+00
			14.00		79.585E+00
			14.50		79.357E+00
			15.00		79.105E+00
			15.50		78.831E+00
			16.00		78.539E+00
			16.50		78.188E+00
			17.00		77.801E+00
			17.50		77.419E+00
			18.00		77.029E+00
			18.50		76.521E+00
			19.00		75.939E+00
			19.50		75.186E+00
			20.00		74.301E+00
			20.50		73.098E+00
			21.00		71.335E+00
			21.50		69.332E+00
			22.00		67.311E+00
			22.50		65.150E+00
			23.00		62.427E+00
			23.50		59.456E+00
			24.00		56.193E+00
			24.50		52.653E+00
			25.00		48.866E+00
			25.50		45.069E+00
			26.00		41.145E+00
			26.50		37.193E+00
			27.00		33.373E+00
			27.50		29.599E+00
			28.00		26.265E+00
			28.50		23.364E+00
			29.00		20.583E+00
			29.50		17.969E+00
			30.00		15.840E+00
			30.50		14.201E+00
			31.00		12.773E+00
			31.50		11.628E+00
			32.00		10.667E+00
			32.50		9.9387E+00
			33.00		9.2923E+00
			33.50		8.7090E+00
			34.00		8.1819E+00
			34.50		7.7754E+00
			35.00		7.4694E+00
			35.50		7.1795E+00
			36.00		6.8730E+00
			36.50		6.6403E+00
			37.00		6.4578E+00
			37.50		6.2976E+00
			38.00		6.1813E+00
			38.50		6.0584E+00
			39.00		5.8981E+00
			39.50		5.7364E+00
			40.00		5.6045E+00
			40.50		5.4927E+00
			41.00		5.3941E+00
			41.50		5.2980E+00
			42.00		5.1947E+00
			42.50		5.0786E+00
			43.00		4.9686E+00
			43.50		4.8835E+00
			44.00		4.7993E+00
			44.50		4.7143E+00
			45.00		4.6439E+00
			45.50		4.5771E+00
			46.00		4.5110E+00
			46.50		4.4296E+00
			47.00		4.3441E+00
			47.50		4.2903E+00
			48.00		4.2547E+00
			48.50		4.1993E+00
			49.00		4.1226E+00
			49.50		4.0497E+00
			50.00		3.9873E+00
			50.50		3.9267E+00
			51.00		3.8671E+00
			51.50		3.8192E+00
			52.00		3.7899E+00
			52.50		3.8175E+00
			53.00		3.7433E+00
			53.50		3.6691E+00
			54.00		3.6387E+00
			54.50		3.6112E+00
		END_DATA
	END_SCAN  7
END_SCAN_DATA
