BEGIN_SCAN_DATA
	FORMAT=CC-Export V1.9                  
	FILE_CREATION_DATE=11-Mar-2022 18:02:43
	LAST_MODIFIED=11-Mar-2022 18:02:43
	BEGIN_SCAN  1
		TASK_NAME=tba PDD Profiles
		PROGRAM=WaterTankScans
		COMMENT=FBF_SanPietro
		MEAS_DATE=08-Feb-2021 09:38:10
		LINAC=MRIdian
		MODALITY=X
		ISOCENTER=900.00
		INPLANE_AXIS=Y
		CROSSPLANE_AXIS=X
		DEPTH_AXIS=Depth
		INPLANE_AXIS_DIR=TARGET_GUN
		CROSSPLANE_AXIS_DIR=LEFT_RIGHT
		DEPTH_AXIS_DIR=UP_DOWN
		ENERGY=6.00
		NOMINAL_DMAX=15.00
		SSD=850.00
		SCD=450.00
		WEDGE_ANGLE=0.00
		FIELD_INPLANE=99.60
		FIELD_CROSSPLANE=99.60
		FIELD_TYPE=RECTANGULAR
		GANTRY=0.00
		GANTRY_UPRIGHT_POSITION=0
		GANTRY_ROTATION=CW
		COLL_ANGLE=0.00
		COLL_OFFSET_INPLANE=0.00
		COLL_OFFSET_CROSSPLANE=0.00
		SCAN_DEVICE=BeamScan
		SCAN_DEVICE_SETUP=BARA_LEFT_RIGHT
		ELECTROMETER=BeamScan
		RANGE_FIELD=LOW
		RANGE_REFERENCE=MEDIUM
		DETECTOR=THIMBLE_CHAMBER
		DETECTOR_RADIUS=2.40
		DETECTOR_NAME=A28MR
		DETECTOR_SN=-
		DETECTOR_CALIBRATION=588000000.00
		DETECTOR_IS_CALIBRATED=0
		DETECTOR_REFERENCE=THIMBLE_CHAMBER
		DETECTOR_REFERENCE_RADIUS=2.75
		DETECTOR_REFERENCE_NAME=A28MR
		DETECTOR_REFERENCE_SN=â€”
		DETECTOR_REFERENCE_IS_CALIBRATED=0
		DETECTOR_REFERENCE_CALIBRATION=303000000.00
		DETECTOR_HV=300.0
		DETECTOR_REFERENCE_HV=300.0
		DETECTOR_ORIENTATION=HORIZONTAL
		FILTER=FFF
		SCAN_SPEED_PROFILE=10.00
		SCAN_PROF_SPEED_DEP=DEPTH
		SCAN_SPEED_PDD=0.00
		SCAN_PDD_SPEED_DEP=ENERGY
		DETECTOR_TYPE=A28MR
		REF_FIELD_DEPTH=220.00
		REF_FIELD_DEFINED=ISOCENTER
		REF_FIELD_INPLANE=100.00
		REF_FIELD_CROSSPLANE=100.00
		REF_SCAN_POSITIONS=-85.00;-84.00;-83.00;-82.00;-81.00;-80.00;-79.00;-78.00;-77.00;-76.00;-75.00;-74.00;-73.00;-72.00;-71.00;-70.00;-69.00;-68.00;-67.00;-66.00;-65.00;-64.00;-63.00;-62.00;-61.00;-60.00;-59.00;-58.00;-57.00;-56.00;-55.00;-54.00;-53.00;-52.00;-51.00;-50.00;-49.00;-48.00;-47.00;-46.00;-45.00;-44.00;-43.00;-42.00;-41.00;-40.00;-39.00;-38.00;-37.00;-36.00;-35.00;-34.00;-33.00;-32.00;-31.00;-30.00;-29.00;-28.00;-27.00;-26.00;-25.00;-24.00;-23.00;-22.00;-21.00;-20.00;-19.00;-18.00;-17.00;-16.00;-15.00;-14.00;-13.00;-12.00;-11.00;-10.00;-9.00;-8.00;-7.00;-6.00;-5.00;-4.00;-3.00;-2.00;-1.00;0.00;1.00;2.00;3.00;4.00;5.00;6.00;7.00;8.00;9.00;10.00;11.00;12.00;13.00;14.00;15.00;16.00;17.00;18.00;19.00;20.00;21.00;22.00;23.00;24.00;25.00;26.00;27.00;28.00;29.00;30.00;31.00;32.00;33.00;34.00;35.00;36.00;37.00;38.00;39.00;40.00;41.00;42.00;43.00;44.00;45.00;46.00;47.00;48.00;49.00;50.00;51.00;52.00;53.00;54.00;55.00;56.00;57.00;58.00;59.00;60.00;61.00;62.00;63.00;64.00;65.00;66.00;67.00;68.00;69.00;70.00;71.00;72.00;73.00;74.00;75.00;76.00;77.00;78.00;79.00;80.00;81.00;82.00;83.00;84.00;85.00;
		REF_OVERSCAN_FACTOR=1.00
		SCAN_CURVETYPE=CROSSPLANE_PROFILE
		SCAN_DEPTH=20.00
		SCAN_OFFAXIS_INPLANE=0.00
		SCAN_OFFAXIS_CROSSPLANE=0.00
		SCAN_ANGLE=0.00
		SCAN_DIAGONAL=NOT_DIAGONAL
		SCAN_DIRECTION=POSITIVE
		MEAS_MEDIUM=WATER
		MEAS_PRESET=MEAS_CONTINUOUS_REFERENCE_SCAN
		MEAS_TIME=0.100
		MEAS_UNIT=A.U.
		INCLINATION_ANGLE=0.00
		PRESSURE=1013.25
		TEMPERATURE=20.00
		NORM_TEMPERATURE=20.00
		CORRECTION_FACTOR=1.0000
		EXPECTED_MAX_DOSE_RATE=3.00
		EPOM_DEPTH_SHIFT=0.2
		EPOM_MODE=SHIFT_PROTOCOL
		CORRECTIONS=CAX_CORR;INTERPOLATED_CORR;SYMMETRY_CORR;
		BEGIN_DATA
			-90.00		6.0207E+00
			-89.50		6.0700E+00
			-89.00		6.1698E+00
			-88.50		6.2277E+00
			-88.00		6.2724E+00
			-87.50		6.3547E+00
			-87.00		6.4511E+00
			-86.50		6.5441E+00
			-86.00		6.6206E+00
			-85.50		6.6735E+00
			-85.00		6.7361E+00
			-84.50		6.8211E+00
			-84.00		6.9170E+00
			-83.50		7.0216E+00
			-83.00		7.1108E+00
			-82.50		7.2023E+00
			-82.00		7.3052E+00
			-81.50		7.4272E+00
			-81.00		7.5569E+00
			-80.50		7.6498E+00
			-80.00		7.7295E+00
			-79.50		7.8245E+00
			-79.00		7.9194E+00
			-78.50		8.0506E+00
			-78.00		8.1923E+00
			-77.50		8.2680E+00
			-77.00		8.3330E+00
			-76.50		8.4712E+00
			-76.00		8.6326E+00
			-75.50		8.7881E+00
			-75.00		8.9235E+00
			-74.50		9.0331E+00
			-74.00		9.1485E+00
			-73.50		9.3235E+00
			-73.00		9.5088E+00
			-72.50		9.6604E+00
			-72.00		9.8142E+00
			-71.50		10.041E+00
			-71.00		10.265E+00
			-70.50		10.410E+00
			-70.00		10.549E+00
			-69.50		10.755E+00
			-69.00		10.969E+00
			-68.50		11.160E+00
			-68.00		11.355E+00
			-67.50		11.576E+00
			-67.00		11.805E+00
			-66.50		12.040E+00
			-66.00		12.278E+00
			-65.50		12.547E+00
			-65.00		12.826E+00
			-64.50		13.115E+00
			-64.00		13.410E+00
			-63.50		13.721E+00
			-63.00		14.055E+00
			-62.50		14.423E+00
			-62.00		14.781E+00
			-61.50		15.225E+00
			-61.00		15.717E+00
			-60.50		16.242E+00
			-60.00		16.785E+00
			-59.50		17.328E+00
			-59.00		17.869E+00
			-58.50		18.573E+00
			-58.00		19.334E+00
			-57.50		20.207E+00
			-57.00		21.152E+00
			-56.50		22.314E+00
			-56.00		23.566E+00
			-55.50		25.107E+00
			-55.00		26.791E+00
			-54.50		29.001E+00
			-54.00		31.568E+00
			-53.50		35.307E+00
			-53.00		39.780E+00
			-52.50		46.544E+00
			-52.00		54.396E+00
			-51.50		66.068E+00
			-51.00		79.133E+00
			-50.50		96.479E+00
			-50.00		115.30E+00
			-49.50		136.96E+00
			-49.00		159.65E+00
			-48.50		184.61E+00
			-48.00		209.88E+00
			-47.50		235.19E+00
			-47.00		260.40E+00
			-46.50		284.26E+00
			-46.00		307.23E+00
			-45.50		327.54E+00
			-45.00		346.61E+00
			-44.50		361.83E+00
			-44.00		375.92E+00
			-43.50		385.84E+00
			-43.00		394.49E+00
			-42.50		400.83E+00
			-42.00		406.43E+00
			-41.50		410.62E+00
			-41.00		414.37E+00
			-40.50		417.41E+00
			-40.00		420.18E+00
			-39.50		422.23E+00
			-39.00		424.17E+00
			-38.50		426.19E+00
			-38.00		428.10E+00
			-37.50		429.54E+00
			-37.00		430.86E+00
			-36.50		432.29E+00
			-36.00		433.84E+00
			-35.50		435.36E+00
			-35.00		436.77E+00
			-34.50		438.07E+00
			-34.00		439.29E+00
			-33.50		440.22E+00
			-33.00		441.22E+00
			-32.50		442.52E+00
			-32.00		443.83E+00
			-31.50		444.61E+00
			-31.00		445.28E+00
			-30.50		446.37E+00
			-30.00		447.51E+00
			-29.50		448.21E+00
			-29.00		448.92E+00
			-28.50		450.11E+00
			-28.00		451.24E+00
			-27.50		451.86E+00
			-27.00		452.52E+00
			-26.50		453.65E+00
			-26.00		454.73E+00
			-25.50		455.30E+00
			-25.00		456.06E+00
			-24.50		457.46E+00
			-24.00		458.74E+00
			-23.50		459.25E+00
			-23.00		459.64E+00
			-22.50		460.28E+00
			-22.00		461.05E+00
			-21.50		461.99E+00
			-21.00		462.85E+00
			-20.50		463.70E+00
			-20.00		464.54E+00
			-19.50		464.92E+00
			-19.00		465.15E+00
			-18.50		465.75E+00
			-18.00		466.51E+00
			-17.50		467.10E+00
			-17.00		467.70E+00
			-16.50		468.20E+00
			-16.00		468.66E+00
			-15.50		469.42E+00
			-15.00		470.18E+00
			-14.50		470.73E+00
			-14.00		471.15E+00
			-13.50		471.29E+00
			-13.00		471.49E+00
			-12.50		471.88E+00
			-12.00		472.35E+00
			-11.50		472.90E+00
			-11.00		473.32E+00
			-10.50		473.65E+00
			-10.00		474.15E+00
			-9.50		474.52E+00
			-9.00		474.67E+00
			-8.50		474.65E+00
			-8.00		474.86E+00
			-7.50		475.79E+00
			-7.00		476.67E+00
			-6.50		476.96E+00
			-6.00		477.05E+00
			-5.50		476.71E+00
			-5.00		476.40E+00
			-4.50		476.55E+00
			-4.00		476.83E+00
			-3.50		477.61E+00
			-3.00		478.42E+00
			-2.50		478.65E+00
			-2.00		478.71E+00
			-1.50		478.95E+00
			-1.00		479.17E+00
			-0.50		478.92E+00
			0.00		478.66E+00
			0.50		478.92E+00
			1.00		479.17E+00
			1.50		478.95E+00
			2.00		478.71E+00
			2.50		478.65E+00
			3.00		478.42E+00
			3.50		477.61E+00
			4.00		476.83E+00
			4.50		476.55E+00
			5.00		476.40E+00
			5.50		476.71E+00
			6.00		477.05E+00
			6.50		476.96E+00
			7.00		476.67E+00
			7.50		475.79E+00
			8.00		474.86E+00
			8.50		474.65E+00
			9.00		474.67E+00
			9.50		474.52E+00
			10.00		474.15E+00
			10.50		473.65E+00
			11.00		473.32E+00
			11.50		472.90E+00
			12.00		472.35E+00
			12.50		471.88E+00
			13.00		471.49E+00
			13.50		471.29E+00
			14.00		471.15E+00
			14.50		470.73E+00
			15.00		470.18E+00
			15.50		469.42E+00
			16.00		468.66E+00
			16.50		468.20E+00
			17.00		467.70E+00
			17.50		467.10E+00
			18.00		466.51E+00
			18.50		465.75E+00
			19.00		465.15E+00
			19.50		464.92E+00
			20.00		464.54E+00
			20.50		463.70E+00
			21.00		462.85E+00
			21.50		461.99E+00
			22.00		461.05E+00
			22.50		460.28E+00
			23.00		459.64E+00
			23.50		459.25E+00
			24.00		458.74E+00
			24.50		457.46E+00
			25.00		456.06E+00
			25.50		455.30E+00
			26.00		454.73E+00
			26.50		453.65E+00
			27.00		452.52E+00
			27.50		451.86E+00
			28.00		451.24E+00
			28.50		450.11E+00
			29.00		448.92E+00
			29.50		448.21E+00
			30.00		447.51E+00
			30.50		446.37E+00
			31.00		445.28E+00
			31.50		444.61E+00
			32.00		443.83E+00
			32.50		442.52E+00
			33.00		441.22E+00
			33.50		440.22E+00
			34.00		439.29E+00
			34.50		438.07E+00
			35.00		436.77E+00
			35.50		435.36E+00
			36.00		433.84E+00
			36.50		432.29E+00
			37.00		430.86E+00
			37.50		429.54E+00
			38.00		428.10E+00
			38.50		426.19E+00
			39.00		424.17E+00
			39.50		422.23E+00
			40.00		420.18E+00
			40.50		417.41E+00
			41.00		414.37E+00
			41.50		410.62E+00
			42.00		406.43E+00
			42.50		400.83E+00
			43.00		394.49E+00
			43.50		385.84E+00
			44.00		375.92E+00
			44.50		361.83E+00
			45.00		346.61E+00
			45.50		327.54E+00
			46.00		307.23E+00
			46.50		284.26E+00
			47.00		260.40E+00
			47.50		235.19E+00
			48.00		209.88E+00
			48.50		184.61E+00
			49.00		159.65E+00
			49.50		136.96E+00
			50.00		115.30E+00
			50.50		96.479E+00
			51.00		79.133E+00
			51.50		66.068E+00
			52.00		54.396E+00
			52.50		46.544E+00
			53.00		39.780E+00
			53.50		35.307E+00
			54.00		31.568E+00
			54.50		29.001E+00
			55.00		26.791E+00
			55.50		25.107E+00
			56.00		23.566E+00
			56.50		22.314E+00
			57.00		21.152E+00
			57.50		20.207E+00
			58.00		19.334E+00
			58.50		18.573E+00
			59.00		17.869E+00
			59.50		17.328E+00
			60.00		16.785E+00
			60.50		16.242E+00
			61.00		15.717E+00
			61.50		15.225E+00
			62.00		14.781E+00
			62.50		14.423E+00
			63.00		14.055E+00
			63.50		13.721E+00
			64.00		13.410E+00
			64.50		13.115E+00
			65.00		12.826E+00
			65.50		12.547E+00
			66.00		12.278E+00
			66.50		12.040E+00
			67.00		11.805E+00
			67.50		11.576E+00
			68.00		11.355E+00
			68.50		11.160E+00
			69.00		10.969E+00
			69.50		10.755E+00
			70.00		10.549E+00
			70.50		10.410E+00
			71.00		10.265E+00
			71.50		10.041E+00
			72.00		9.8142E+00
			72.50		9.6604E+00
			73.00		9.5088E+00
			73.50		9.3235E+00
			74.00		9.1485E+00
			74.50		9.0331E+00
			75.00		8.9235E+00
			75.50		8.7881E+00
			76.00		8.6326E+00
			76.50		8.4712E+00
			77.00		8.3330E+00
			77.50		8.2680E+00
			78.00		8.1923E+00
			78.50		8.0506E+00
			79.00		7.9194E+00
			79.50		7.8245E+00
			80.00		7.7295E+00
			80.50		7.6498E+00
			81.00		7.5569E+00
			81.50		7.4272E+00
			82.00		7.3052E+00
			82.50		7.2023E+00
			83.00		7.1108E+00
			83.50		7.0216E+00
			84.00		6.9170E+00
			84.50		6.8211E+00
			85.00		6.7361E+00
			85.50		6.6735E+00
			86.00		6.6206E+00
			86.50		6.5441E+00
			87.00		6.4511E+00
			87.50		6.3547E+00
			88.00		6.2724E+00
			88.50		6.2277E+00
			89.00		6.1698E+00
			89.50		6.0700E+00
			90.00		6.0207E+00
		END_DATA
	END_SCAN  1
	BEGIN_SCAN  2
		TASK_NAME=tba PDD Profiles
		PROGRAM=WaterTankScans
		COMMENT=FBF_SanPietro
		MEAS_DATE=08-Feb-2021 09:38:10
		LINAC=MRIdian
		MODALITY=X
		ISOCENTER=900.00
		INPLANE_AXIS=Y
		CROSSPLANE_AXIS=X
		DEPTH_AXIS=Depth
		INPLANE_AXIS_DIR=TARGET_GUN
		CROSSPLANE_AXIS_DIR=LEFT_RIGHT
		DEPTH_AXIS_DIR=UP_DOWN
		ENERGY=6.00
		NOMINAL_DMAX=15.00
		SSD=850.00
		SCD=450.00
		WEDGE_ANGLE=0.00
		FIELD_INPLANE=99.60
		FIELD_CROSSPLANE=99.60
		FIELD_TYPE=RECTANGULAR
		GANTRY=0.00
		GANTRY_UPRIGHT_POSITION=0
		GANTRY_ROTATION=CW
		COLL_ANGLE=0.00
		COLL_OFFSET_INPLANE=0.00
		COLL_OFFSET_CROSSPLANE=0.00
		SCAN_DEVICE=BeamScan
		SCAN_DEVICE_SETUP=BARA_LEFT_RIGHT
		ELECTROMETER=BeamScan
		RANGE_FIELD=LOW
		RANGE_REFERENCE=MEDIUM
		DETECTOR=THIMBLE_CHAMBER
		DETECTOR_RADIUS=2.40
		DETECTOR_NAME=A28MR
		DETECTOR_SN=-
		DETECTOR_CALIBRATION=588000000.00
		DETECTOR_IS_CALIBRATED=0
		DETECTOR_REFERENCE=THIMBLE_CHAMBER
		DETECTOR_REFERENCE_RADIUS=2.75
		DETECTOR_REFERENCE_NAME=A28MR
		DETECTOR_REFERENCE_SN=â€”
		DETECTOR_REFERENCE_IS_CALIBRATED=0
		DETECTOR_REFERENCE_CALIBRATION=303000000.00
		DETECTOR_HV=300.0
		DETECTOR_REFERENCE_HV=300.0
		DETECTOR_ORIENTATION=HORIZONTAL
		FILTER=FFF
		SCAN_SPEED_PROFILE=10.00
		SCAN_PROF_SPEED_DEP=DEPTH
		SCAN_SPEED_PDD=0.00
		SCAN_PDD_SPEED_DEP=ENERGY
		DETECTOR_TYPE=A28MR
		REF_FIELD_DEPTH=220.00
		REF_FIELD_DEFINED=ISOCENTER
		REF_FIELD_INPLANE=100.00
		REF_FIELD_CROSSPLANE=100.00
		REF_SCAN_POSITIONS=-85.00;-84.00;-83.00;-82.00;-81.00;-80.00;-79.00;-78.00;-77.00;-76.00;-75.00;-74.00;-73.00;-72.00;-71.00;-70.00;-69.00;-68.00;-67.00;-66.00;-65.00;-64.00;-63.00;-62.00;-61.00;-60.00;-59.00;-58.00;-57.00;-56.00;-55.00;-54.00;-53.00;-52.00;-51.00;-50.00;-49.00;-48.00;-47.00;-46.00;-45.00;-44.00;-43.00;-42.00;-41.00;-40.00;-39.00;-38.00;-37.00;-36.00;-35.00;-34.00;-33.00;-32.00;-31.00;-30.00;-29.00;-28.00;-27.00;-26.00;-25.00;-24.00;-23.00;-22.00;-21.00;-20.00;-19.00;-18.00;-17.00;-16.00;-15.00;-14.00;-13.00;-12.00;-11.00;-10.00;-9.00;-8.00;-7.00;-6.00;-5.00;-4.00;-3.00;-2.00;-1.00;0.00;1.00;2.00;3.00;4.00;5.00;6.00;7.00;8.00;9.00;10.00;11.00;12.00;13.00;14.00;15.00;16.00;17.00;18.00;19.00;20.00;21.00;22.00;23.00;24.00;25.00;26.00;27.00;28.00;29.00;30.00;31.00;32.00;33.00;34.00;35.00;36.00;37.00;38.00;39.00;40.00;41.00;42.00;43.00;44.00;45.00;46.00;47.00;48.00;49.00;50.00;51.00;52.00;53.00;54.00;55.00;56.00;57.00;58.00;59.00;60.00;61.00;62.00;63.00;64.00;65.00;66.00;67.00;68.00;69.00;70.00;71.00;72.00;73.00;74.00;75.00;76.00;77.00;78.00;79.00;80.00;81.00;82.00;83.00;84.00;85.00;
		REF_OVERSCAN_FACTOR=1.00
		SCAN_CURVETYPE=CROSSPLANE_PROFILE
		SCAN_DEPTH=55.00
		SCAN_OFFAXIS_INPLANE=0.00
		SCAN_OFFAXIS_CROSSPLANE=0.00
		SCAN_ANGLE=0.00
		SCAN_DIAGONAL=NOT_DIAGONAL
		SCAN_DIRECTION=POSITIVE
		MEAS_MEDIUM=WATER
		MEAS_PRESET=MEAS_CONTINUOUS_REFERENCE_SCAN
		MEAS_TIME=0.100
		MEAS_UNIT=A.U.
		INCLINATION_ANGLE=0.00
		PRESSURE=1013.25
		TEMPERATURE=20.00
		NORM_TEMPERATURE=20.00
		CORRECTION_FACTOR=1.0000
		EXPECTED_MAX_DOSE_RATE=3.00
		EPOM_DEPTH_SHIFT=0.2
		EPOM_MODE=SHIFT_PROTOCOL
		CORRECTIONS=SSD_CORR;CAX_CORR;INTERPOLATED_CORR;SYMMETRY_CORR;
		BEGIN_DATA
			-96.50		7.9700E+00
			-96.00		7.9703E+00
			-95.50		8.0553E+00
			-95.00		8.1500E+00
			-94.50		8.2587E+00
			-94.00		8.3573E+00
			-93.50		8.4377E+00
			-93.00		8.5445E+00
			-92.50		8.6713E+00
			-92.00		8.7741E+00
			-91.50		8.8555E+00
			-91.00		8.9543E+00
			-90.50		9.0603E+00
			-90.00		9.1559E+00
			-89.50		9.2586E+00
			-89.00		9.3769E+00
			-88.50		9.5023E+00
			-88.00		9.6306E+00
			-87.50		9.7715E+00
			-87.00		9.9067E+00
			-86.50		10.057E+00
			-86.00		10.224E+00
			-85.50		10.377E+00
			-85.00		10.493E+00
			-84.50		10.617E+00
			-84.00		10.770E+00
			-83.50		10.919E+00
			-83.00		11.049E+00
			-82.50		11.190E+00
			-82.00		11.385E+00
			-81.50		11.582E+00
			-81.00		11.761E+00
			-80.50		11.954E+00
			-80.00		12.147E+00
			-79.50		12.326E+00
			-79.00		12.497E+00
			-78.50		12.670E+00
			-78.00		12.863E+00
			-77.50		13.089E+00
			-77.00		13.313E+00
			-76.50		13.561E+00
			-76.00		13.806E+00
			-75.50		13.997E+00
			-75.00		14.188E+00
			-74.50		14.455E+00
			-74.00		14.741E+00
			-73.50		14.999E+00
			-73.00		15.240E+00
			-72.50		15.531E+00
			-72.00		15.888E+00
			-71.50		16.229E+00
			-71.00		16.529E+00
			-70.50		16.819E+00
			-70.00		17.076E+00
			-69.50		17.348E+00
			-69.00		17.684E+00
			-68.50		18.048E+00
			-68.00		18.484E+00
			-67.50		18.916E+00
			-67.00		19.301E+00
			-66.50		19.684E+00
			-66.00		20.111E+00
			-65.50		20.539E+00
			-65.00		20.999E+00
			-64.50		21.506E+00
			-64.00		22.069E+00
			-63.50		22.677E+00
			-63.00		23.255E+00
			-62.50		23.853E+00
			-62.00		24.487E+00
			-61.50		25.139E+00
			-61.00		25.818E+00
			-60.50		26.648E+00
			-60.00		27.520E+00
			-59.50		28.433E+00
			-59.00		29.353E+00
			-58.50		30.445E+00
			-58.00		31.652E+00
			-57.50		33.135E+00
			-57.00		34.778E+00
			-56.50		36.783E+00
			-56.00		39.112E+00
			-55.50		42.260E+00
			-55.00		46.590E+00
			-54.50		51.798E+00
			-54.00		59.495E+00
			-53.50		68.231E+00
			-53.00		80.442E+00
			-52.50		93.690E+00
			-52.00		110.20E+00
			-51.50		127.74E+00
			-51.00		147.25E+00
			-50.50		167.29E+00
			-50.00		188.62E+00
			-49.50		210.47E+00
			-49.00		232.22E+00
			-48.50		253.70E+00
			-48.00		274.66E+00
			-47.50		294.24E+00
			-47.00		312.43E+00
			-46.50		327.79E+00
			-46.00		342.21E+00
			-45.50		353.27E+00
			-45.00		363.40E+00
			-44.50		370.90E+00
			-44.00		377.78E+00
			-43.50		382.79E+00
			-43.00		387.24E+00
			-42.50		390.62E+00
			-42.00		393.28E+00
			-41.50		395.70E+00
			-41.00		398.24E+00
			-40.50		400.54E+00
			-40.00		402.29E+00
			-39.50		403.79E+00
			-39.00		405.25E+00
			-38.50		406.84E+00
			-38.00		408.37E+00
			-37.50		409.77E+00
			-37.00		411.23E+00
			-36.50		412.78E+00
			-36.00		414.10E+00
			-35.50		415.27E+00
			-35.00		416.48E+00
			-34.50		417.74E+00
			-34.00		418.83E+00
			-33.50		419.79E+00
			-33.00		420.84E+00
			-32.50		422.06E+00
			-32.00		423.21E+00
			-31.50		424.14E+00
			-31.00		425.07E+00
			-30.50		426.16E+00
			-30.00		427.34E+00
			-29.50		428.51E+00
			-29.00		429.64E+00
			-28.50		430.52E+00
			-28.00		431.24E+00
			-27.50		431.86E+00
			-27.00		432.80E+00
			-26.50		433.84E+00
			-26.00		434.73E+00
			-25.50		435.55E+00
			-25.00		436.22E+00
			-24.50		436.84E+00
			-24.00		437.39E+00
			-23.50		437.99E+00
			-23.00		439.06E+00
			-22.50		440.16E+00
			-22.00		440.95E+00
			-21.50		441.58E+00
			-21.00		442.08E+00
			-20.50		442.73E+00
			-20.00		443.56E+00
			-19.50		444.16E+00
			-19.00		444.68E+00
			-18.50		445.20E+00
			-18.00		445.69E+00
			-17.50		446.40E+00
			-17.00		447.13E+00
			-16.50		447.53E+00
			-16.00		447.90E+00
			-15.50		448.17E+00
			-15.00		448.48E+00
			-14.50		449.18E+00
			-14.00		449.97E+00
			-13.50		450.40E+00
			-13.00		450.64E+00
			-12.50		450.95E+00
			-12.00		451.23E+00
			-11.50		451.48E+00
			-11.00		451.96E+00
			-10.50		452.43E+00
			-10.00		452.66E+00
			-9.50		452.82E+00
			-9.00		453.32E+00
			-8.50		453.95E+00
			-8.00		454.38E+00
			-7.50		454.76E+00
			-7.00		455.18E+00
			-6.50		455.61E+00
			-6.00		455.92E+00
			-5.50		456.23E+00
			-5.00		456.36E+00
			-4.50		456.42E+00
			-4.00		456.48E+00
			-3.50		456.77E+00
			-3.00		457.13E+00
			-2.50		457.28E+00
			-2.00		457.32E+00
			-1.50		457.33E+00
			-1.00		457.46E+00
			-0.50		457.65E+00
			0.00		457.79E+00
			0.50		457.65E+00
			1.00		457.46E+00
			1.50		457.33E+00
			2.00		457.32E+00
			2.50		457.28E+00
			3.00		457.13E+00
			3.50		456.77E+00
			4.00		456.48E+00
			4.50		456.42E+00
			5.00		456.36E+00
			5.50		456.23E+00
			6.00		455.92E+00
			6.50		455.61E+00
			7.00		455.18E+00
			7.50		454.76E+00
			8.00		454.38E+00
			8.50		453.95E+00
			9.00		453.32E+00
			9.50		452.82E+00
			10.00		452.66E+00
			10.50		452.43E+00
			11.00		451.96E+00
			11.50		451.48E+00
			12.00		451.23E+00
			12.50		450.95E+00
			13.00		450.64E+00
			13.50		450.40E+00
			14.00		449.97E+00
			14.50		449.18E+00
			15.00		448.48E+00
			15.50		448.17E+00
			16.00		447.90E+00
			16.50		447.53E+00
			17.00		447.13E+00
			17.50		446.40E+00
			18.00		445.69E+00
			18.50		445.20E+00
			19.00		444.68E+00
			19.50		444.16E+00
			20.00		443.56E+00
			20.50		442.73E+00
			21.00		442.08E+00
			21.50		441.58E+00
			22.00		440.95E+00
			22.50		440.16E+00
			23.00		439.06E+00
			23.50		437.99E+00
			24.00		437.39E+00
			24.50		436.84E+00
			25.00		436.22E+00
			25.50		435.55E+00
			26.00		434.73E+00
			26.50		433.84E+00
			27.00		432.80E+00
			27.50		431.86E+00
			28.00		431.24E+00
			28.50		430.52E+00
			29.00		429.64E+00
			29.50		428.51E+00
			30.00		427.34E+00
			30.50		426.16E+00
			31.00		425.07E+00
			31.50		424.14E+00
			32.00		423.21E+00
			32.50		422.06E+00
			33.00		420.84E+00
			33.50		419.79E+00
			34.00		418.83E+00
			34.50		417.74E+00
			35.00		416.48E+00
			35.50		415.27E+00
			36.00		414.10E+00
			36.50		412.78E+00
			37.00		411.23E+00
			37.50		409.77E+00
			38.00		408.37E+00
			38.50		406.84E+00
			39.00		405.25E+00
			39.50		403.79E+00
			40.00		402.29E+00
			40.50		400.54E+00
			41.00		398.24E+00
			41.50		395.70E+00
			42.00		393.28E+00
			42.50		390.62E+00
			43.00		387.24E+00
			43.50		382.79E+00
			44.00		377.78E+00
			44.50		370.90E+00
			45.00		363.40E+00
			45.50		353.27E+00
			46.00		342.21E+00
			46.50		327.79E+00
			47.00		312.43E+00
			47.50		294.24E+00
			48.00		274.66E+00
			48.50		253.70E+00
			49.00		232.22E+00
			49.50		210.47E+00
			50.00		188.62E+00
			50.50		167.29E+00
			51.00		147.25E+00
			51.50		127.74E+00
			52.00		110.20E+00
			52.50		93.690E+00
			53.00		80.442E+00
			53.50		68.231E+00
			54.00		59.495E+00
			54.50		51.798E+00
			55.00		46.590E+00
			55.50		42.260E+00
			56.00		39.112E+00
			56.50		36.783E+00
			57.00		34.778E+00
			57.50		33.135E+00
			58.00		31.652E+00
			58.50		30.445E+00
			59.00		29.353E+00
			59.50		28.433E+00
			60.00		27.520E+00
			60.50		26.648E+00
			61.00		25.818E+00
			61.50		25.139E+00
			62.00		24.487E+00
			62.50		23.853E+00
			63.00		23.255E+00
			63.50		22.677E+00
			64.00		22.069E+00
			64.50		21.506E+00
			65.00		20.999E+00
			65.50		20.539E+00
			66.00		20.111E+00
			66.50		19.684E+00
			67.00		19.301E+00
			67.50		18.916E+00
			68.00		18.484E+00
			68.50		18.048E+00
			69.00		17.684E+00
			69.50		17.348E+00
			70.00		17.076E+00
			70.50		16.819E+00
			71.00		16.529E+00
			71.50		16.229E+00
			72.00		15.888E+00
			72.50		15.531E+00
			73.00		15.240E+00
			73.50		14.999E+00
			74.00		14.741E+00
			74.50		14.455E+00
			75.00		14.188E+00
			75.50		13.997E+00
			76.00		13.806E+00
			76.50		13.561E+00
			77.00		13.313E+00
			77.50		13.089E+00
			78.00		12.863E+00
			78.50		12.670E+00
			79.00		12.497E+00
			79.50		12.326E+00
			80.00		12.147E+00
			80.50		11.954E+00
			81.00		11.761E+00
			81.50		11.582E+00
			82.00		11.385E+00
			82.50		11.190E+00
			83.00		11.049E+00
			83.50		10.919E+00
			84.00		10.770E+00
			84.50		10.617E+00
			85.00		10.493E+00
			85.50		10.377E+00
			86.00		10.224E+00
			86.50		10.057E+00
			87.00		9.9067E+00
			87.50		9.7715E+00
			88.00		9.6306E+00
			88.50		9.5023E+00
			89.00		9.3769E+00
			89.50		9.2586E+00
			90.00		9.1559E+00
			90.50		9.0603E+00
			91.00		8.9543E+00
			91.50		8.8555E+00
			92.00		8.7741E+00
			92.50		8.6713E+00
			93.00		8.5445E+00
			93.50		8.4377E+00
			94.00		8.3573E+00
			94.50		8.2587E+00
			95.00		8.1500E+00
			95.50		8.0553E+00
			96.00		7.9703E+00
			96.50		7.9700E+00
		END_DATA
	END_SCAN  2
	BEGIN_SCAN  3
		TASK_NAME=tba PDD Profiles
		PROGRAM=WaterTankScans
		COMMENT=FBF_SanPietro
		MEAS_DATE=08-Feb-2021 09:38:10
		LINAC=MRIdian
		MODALITY=X
		ISOCENTER=900.00
		INPLANE_AXIS=Y
		CROSSPLANE_AXIS=X
		DEPTH_AXIS=Depth
		INPLANE_AXIS_DIR=TARGET_GUN
		CROSSPLANE_AXIS_DIR=LEFT_RIGHT
		DEPTH_AXIS_DIR=UP_DOWN
		ENERGY=6.00
		NOMINAL_DMAX=15.00
		SSD=850.00
		SCD=450.00
		WEDGE_ANGLE=0.00
		FIELD_INPLANE=99.60
		FIELD_CROSSPLANE=99.60
		FIELD_TYPE=RECTANGULAR
		GANTRY=0.00
		GANTRY_UPRIGHT_POSITION=0
		GANTRY_ROTATION=CW
		COLL_ANGLE=0.00
		COLL_OFFSET_INPLANE=0.00
		COLL_OFFSET_CROSSPLANE=0.00
		SCAN_DEVICE=BeamScan
		SCAN_DEVICE_SETUP=BARA_LEFT_RIGHT
		ELECTROMETER=BeamScan
		RANGE_FIELD=LOW
		RANGE_REFERENCE=MEDIUM
		DETECTOR=THIMBLE_CHAMBER
		DETECTOR_RADIUS=2.40
		DETECTOR_NAME=A28MR
		DETECTOR_SN=-
		DETECTOR_CALIBRATION=588000000.00
		DETECTOR_IS_CALIBRATED=0
		DETECTOR_REFERENCE=THIMBLE_CHAMBER
		DETECTOR_REFERENCE_RADIUS=2.75
		DETECTOR_REFERENCE_NAME=A28MR
		DETECTOR_REFERENCE_SN=â€”
		DETECTOR_REFERENCE_IS_CALIBRATED=0
		DETECTOR_REFERENCE_CALIBRATION=303000000.00
		DETECTOR_HV=300.0
		DETECTOR_REFERENCE_HV=300.0
		DETECTOR_ORIENTATION=HORIZONTAL
		FILTER=FFF
		SCAN_SPEED_PROFILE=10.00
		SCAN_PROF_SPEED_DEP=DEPTH
		SCAN_SPEED_PDD=0.00
		SCAN_PDD_SPEED_DEP=ENERGY
		DETECTOR_TYPE=A28MR
		REF_FIELD_DEPTH=220.00
		REF_FIELD_DEFINED=ISOCENTER
		REF_FIELD_INPLANE=100.00
		REF_FIELD_CROSSPLANE=100.00
		REF_SCAN_POSITIONS=-85.00;-84.00;-83.00;-82.00;-81.00;-80.00;-79.00;-78.00;-77.00;-76.00;-75.00;-74.00;-73.00;-72.00;-71.00;-70.00;-69.00;-68.00;-67.00;-66.00;-65.00;-64.00;-63.00;-62.00;-61.00;-60.00;-59.00;-58.00;-57.00;-56.00;-55.00;-54.00;-53.00;-52.00;-51.00;-50.00;-49.00;-48.00;-47.00;-46.00;-45.00;-44.00;-43.00;-42.00;-41.00;-40.00;-39.00;-38.00;-37.00;-36.00;-35.00;-34.00;-33.00;-32.00;-31.00;-30.00;-29.00;-28.00;-27.00;-26.00;-25.00;-24.00;-23.00;-22.00;-21.00;-20.00;-19.00;-18.00;-17.00;-16.00;-15.00;-14.00;-13.00;-12.00;-11.00;-10.00;-9.00;-8.00;-7.00;-6.00;-5.00;-4.00;-3.00;-2.00;-1.00;0.00;1.00;2.00;3.00;4.00;5.00;6.00;7.00;8.00;9.00;10.00;11.00;12.00;13.00;14.00;15.00;16.00;17.00;18.00;19.00;20.00;21.00;22.00;23.00;24.00;25.00;26.00;27.00;28.00;29.00;30.00;31.00;32.00;33.00;34.00;35.00;36.00;37.00;38.00;39.00;40.00;41.00;42.00;43.00;44.00;45.00;46.00;47.00;48.00;49.00;50.00;51.00;52.00;53.00;54.00;55.00;56.00;57.00;58.00;59.00;60.00;61.00;62.00;63.00;64.00;65.00;66.00;67.00;68.00;69.00;70.00;71.00;72.00;73.00;74.00;75.00;76.00;77.00;78.00;79.00;80.00;81.00;82.00;83.00;84.00;85.00;
		REF_OVERSCAN_FACTOR=1.00
		SCAN_CURVETYPE=CROSSPLANE_PROFILE
		SCAN_DEPTH=100.00
		SCAN_OFFAXIS_INPLANE=0.00
		SCAN_OFFAXIS_CROSSPLANE=0.00
		SCAN_ANGLE=0.00
		SCAN_DIAGONAL=NOT_DIAGONAL
		SCAN_DIRECTION=POSITIVE
		MEAS_MEDIUM=WATER
		MEAS_PRESET=MEAS_CONTINUOUS_REFERENCE_SCAN
		MEAS_TIME=0.100
		MEAS_UNIT=A.U.
		INCLINATION_ANGLE=0.00
		PRESSURE=1013.25
		TEMPERATURE=20.00
		NORM_TEMPERATURE=20.00
		CORRECTION_FACTOR=1.0000
		EXPECTED_MAX_DOSE_RATE=3.00
		EPOM_DEPTH_SHIFT=0.2
		EPOM_MODE=SHIFT_PROTOCOL
		CORRECTIONS=SSD_CORR;CAX_CORR;INTERPOLATED_CORR;SYMMETRY_CORR;
		BEGIN_DATA
			-96.00		10.248E+00
			-95.50		10.304E+00
			-95.00		10.403E+00
			-94.50		10.525E+00
			-94.00		10.663E+00
			-93.50		10.813E+00
			-93.00		10.945E+00
			-92.50		11.095E+00
			-92.00		11.254E+00
			-91.50		11.421E+00
			-91.00		11.602E+00
			-90.50		11.746E+00
			-90.00		11.875E+00
			-89.50		12.030E+00
			-89.00		12.177E+00
			-88.50		12.318E+00
			-88.00		12.472E+00
			-87.50		12.628E+00
			-87.00		12.792E+00
			-86.50		12.956E+00
			-86.00		13.158E+00
			-85.50		13.376E+00
			-85.00		13.601E+00
			-84.50		13.797E+00
			-84.00		13.968E+00
			-83.50		14.165E+00
			-83.00		14.399E+00
			-82.50		14.616E+00
			-82.00		14.801E+00
			-81.50		15.052E+00
			-81.00		15.329E+00
			-80.50		15.525E+00
			-80.00		15.718E+00
			-79.50		15.955E+00
			-79.00		16.201E+00
			-78.50		16.446E+00
			-78.00		16.681E+00
			-77.50		16.911E+00
			-77.00		17.152E+00
			-76.50		17.456E+00
			-76.00		17.778E+00
			-75.50		18.073E+00
			-75.00		18.375E+00
			-74.50		18.682E+00
			-74.00		18.974E+00
			-73.50		19.298E+00
			-73.00		19.651E+00
			-72.50		19.974E+00
			-72.00		20.269E+00
			-71.50		20.596E+00
			-71.00		21.028E+00
			-70.50		21.453E+00
			-70.00		21.800E+00
			-69.50		22.146E+00
			-69.00		22.632E+00
			-68.50		23.131E+00
			-68.00		23.530E+00
			-67.50		23.933E+00
			-67.00		24.423E+00
			-66.50		24.977E+00
			-66.00		25.508E+00
			-65.50		26.037E+00
			-65.00		26.602E+00
			-64.50		27.182E+00
			-64.00		27.750E+00
			-63.50		28.386E+00
			-63.00		29.063E+00
			-62.50		29.826E+00
			-62.00		30.598E+00
			-61.50		31.438E+00
			-61.00		32.309E+00
			-60.50		33.371E+00
			-60.00		34.522E+00
			-59.50		35.896E+00
			-59.00		37.468E+00
			-58.50		39.448E+00
			-58.00		42.081E+00
			-57.50		45.222E+00
			-57.00		49.478E+00
			-56.50		54.376E+00
			-56.00		61.615E+00
			-55.50		69.455E+00
			-55.00		79.761E+00
			-54.50		90.665E+00
			-54.00		103.44E+00
			-53.50		116.61E+00
			-53.00		131.24E+00
			-52.50		146.41E+00
			-52.00		161.67E+00
			-51.50		176.88E+00
			-51.00		191.78E+00
			-50.50		206.37E+00
			-50.00		220.45E+00
			-49.50		233.26E+00
			-49.00		245.28E+00
			-48.50		254.96E+00
			-48.00		264.10E+00
			-47.50		270.70E+00
			-47.00		276.82E+00
			-46.50		281.55E+00
			-46.00		285.90E+00
			-45.50		289.02E+00
			-45.00		291.83E+00
			-44.50		294.28E+00
			-44.00		296.60E+00
			-43.50		298.55E+00
			-43.00		300.07E+00
			-42.50		301.46E+00
			-42.00		302.70E+00
			-41.50		303.98E+00
			-41.00		305.53E+00
			-40.50		306.90E+00
			-40.00		307.77E+00
			-39.50		308.71E+00
			-39.00		309.98E+00
			-38.50		311.21E+00
			-38.00		312.09E+00
			-37.50		312.96E+00
			-37.00		313.79E+00
			-36.50		314.68E+00
			-36.00		315.78E+00
			-35.50		316.79E+00
			-35.00		317.67E+00
			-34.50		318.53E+00
			-34.00		319.32E+00
			-33.50		320.12E+00
			-33.00		320.97E+00
			-32.50		321.80E+00
			-32.00		322.66E+00
			-31.50		323.53E+00
			-31.00		324.35E+00
			-30.50		324.93E+00
			-30.00		325.48E+00
			-29.50		326.28E+00
			-29.00		327.17E+00
			-28.50		328.07E+00
			-28.00		329.01E+00
			-27.50		329.71E+00
			-27.00		330.02E+00
			-26.50		330.42E+00
			-26.00		331.11E+00
			-25.50		331.86E+00
			-25.00		332.62E+00
			-24.50		333.31E+00
			-24.00		333.92E+00
			-23.50		334.55E+00
			-23.00		334.90E+00
			-22.50		335.16E+00
			-22.00		335.73E+00
			-21.50		336.43E+00
			-21.00		337.08E+00
			-20.50		337.73E+00
			-20.00		338.10E+00
			-19.50		338.32E+00
			-19.00		338.70E+00
			-18.50		339.17E+00
			-18.00		339.60E+00
			-17.50		339.90E+00
			-17.00		340.27E+00
			-16.50		340.73E+00
			-16.00		341.15E+00
			-15.50		341.58E+00
			-15.00		342.03E+00
			-14.50		342.35E+00
			-14.00		342.65E+00
			-13.50		343.15E+00
			-13.00		343.67E+00
			-12.50		344.04E+00
			-12.00		344.35E+00
			-11.50		344.79E+00
			-11.00		345.37E+00
			-10.50		345.77E+00
			-10.00		345.83E+00
			-9.50		345.95E+00
			-9.00		346.09E+00
			-8.50		346.24E+00
			-8.00		346.66E+00
			-7.50		347.10E+00
			-7.00		347.24E+00
			-6.50		347.31E+00
			-6.00		347.29E+00
			-5.50		347.21E+00
			-5.00		347.45E+00
			-4.50		347.84E+00
			-4.00		348.11E+00
			-3.50		348.35E+00
			-3.00		348.59E+00
			-2.50		348.71E+00
			-2.00		348.79E+00
			-1.50		348.73E+00
			-1.00		348.65E+00
			-0.50		348.51E+00
			0.00		348.39E+00
			0.50		348.51E+00
			1.00		348.65E+00
			1.50		348.73E+00
			2.00		348.79E+00
			2.50		348.71E+00
			3.00		348.59E+00
			3.50		348.35E+00
			4.00		348.11E+00
			4.50		347.84E+00
			5.00		347.45E+00
			5.50		347.21E+00
			6.00		347.29E+00
			6.50		347.31E+00
			7.00		347.24E+00
			7.50		347.10E+00
			8.00		346.66E+00
			8.50		346.24E+00
			9.00		346.09E+00
			9.50		345.95E+00
			10.00		345.83E+00
			10.50		345.77E+00
			11.00		345.37E+00
			11.50		344.79E+00
			12.00		344.35E+00
			12.50		344.04E+00
			13.00		343.67E+00
			13.50		343.15E+00
			14.00		342.65E+00
			14.50		342.35E+00
			15.00		342.03E+00
			15.50		341.58E+00
			16.00		341.15E+00
			16.50		340.73E+00
			17.00		340.27E+00
			17.50		339.90E+00
			18.00		339.60E+00
			18.50		339.17E+00
			19.00		338.70E+00
			19.50		338.32E+00
			20.00		338.10E+00
			20.50		337.73E+00
			21.00		337.08E+00
			21.50		336.43E+00
			22.00		335.73E+00
			22.50		335.16E+00
			23.00		334.90E+00
			23.50		334.55E+00
			24.00		333.92E+00
			24.50		333.31E+00
			25.00		332.62E+00
			25.50		331.86E+00
			26.00		331.11E+00
			26.50		330.42E+00
			27.00		330.02E+00
			27.50		329.71E+00
			28.00		329.01E+00
			28.50		328.07E+00
			29.00		327.17E+00
			29.50		326.28E+00
			30.00		325.48E+00
			30.50		324.93E+00
			31.00		324.35E+00
			31.50		323.53E+00
			32.00		322.66E+00
			32.50		321.80E+00
			33.00		320.97E+00
			33.50		320.12E+00
			34.00		319.32E+00
			34.50		318.53E+00
			35.00		317.67E+00
			35.50		316.79E+00
			36.00		315.78E+00
			36.50		314.68E+00
			37.00		313.79E+00
			37.50		312.96E+00
			38.00		312.09E+00
			38.50		311.21E+00
			39.00		309.98E+00
			39.50		308.71E+00
			40.00		307.77E+00
			40.50		306.90E+00
			41.00		305.53E+00
			41.50		303.98E+00
			42.00		302.70E+00
			42.50		301.46E+00
			43.00		300.07E+00
			43.50		298.55E+00
			44.00		296.60E+00
			44.50		294.28E+00
			45.00		291.83E+00
			45.50		289.02E+00
			46.00		285.90E+00
			46.50		281.55E+00
			47.00		276.82E+00
			47.50		270.70E+00
			48.00		264.10E+00
			48.50		254.96E+00
			49.00		245.28E+00
			49.50		233.26E+00
			50.00		220.45E+00
			50.50		206.37E+00
			51.00		191.78E+00
			51.50		176.88E+00
			52.00		161.67E+00
			52.50		146.41E+00
			53.00		131.24E+00
			53.50		116.61E+00
			54.00		103.44E+00
			54.50		90.665E+00
			55.00		79.761E+00
			55.50		69.455E+00
			56.00		61.615E+00
			56.50		54.376E+00
			57.00		49.478E+00
			57.50		45.222E+00
			58.00		42.081E+00
			58.50		39.448E+00
			59.00		37.468E+00
			59.50		35.896E+00
			60.00		34.522E+00
			60.50		33.371E+00
			61.00		32.309E+00
			61.50		31.438E+00
			62.00		30.598E+00
			62.50		29.826E+00
			63.00		29.063E+00
			63.50		28.386E+00
			64.00		27.750E+00
			64.50		27.182E+00
			65.00		26.602E+00
			65.50		26.037E+00
			66.00		25.508E+00
			66.50		24.977E+00
			67.00		24.423E+00
			67.50		23.933E+00
			68.00		23.530E+00
			68.50		23.131E+00
			69.00		22.632E+00
			69.50		22.146E+00
			70.00		21.800E+00
			70.50		21.453E+00
			71.00		21.028E+00
			71.50		20.596E+00
			72.00		20.269E+00
			72.50		19.974E+00
			73.00		19.651E+00
			73.50		19.298E+00
			74.00		18.974E+00
			74.50		18.682E+00
			75.00		18.375E+00
			75.50		18.073E+00
			76.00		17.778E+00
			76.50		17.456E+00
			77.00		17.152E+00
			77.50		16.911E+00
			78.00		16.681E+00
			78.50		16.446E+00
			79.00		16.201E+00
			79.50		15.955E+00
			80.00		15.718E+00
			80.50		15.525E+00
			81.00		15.329E+00
			81.50		15.052E+00
			82.00		14.801E+00
			82.50		14.616E+00
			83.00		14.399E+00
			83.50		14.165E+00
			84.00		13.968E+00
			84.50		13.797E+00
			85.00		13.601E+00
			85.50		13.376E+00
			86.00		13.158E+00
			86.50		12.956E+00
			87.00		12.792E+00
			87.50		12.628E+00
			88.00		12.472E+00
			88.50		12.318E+00
			89.00		12.177E+00
			89.50		12.030E+00
			90.00		11.875E+00
			90.50		11.746E+00
			91.00		11.602E+00
			91.50		11.421E+00
			92.00		11.254E+00
			92.50		11.095E+00
			93.00		10.945E+00
			93.50		10.813E+00
			94.00		10.663E+00
			94.50		10.525E+00
			95.00		10.403E+00
			95.50		10.304E+00
			96.00		10.248E+00
		END_DATA
	END_SCAN  3
	BEGIN_SCAN  4
		TASK_NAME=tba PDD Profiles
		PROGRAM=WaterTankScans
		COMMENT=FBF_SanPietro
		MEAS_DATE=08-Feb-2021 09:38:10
		LINAC=MRIdian
		MODALITY=X
		ISOCENTER=900.00
		INPLANE_AXIS=Y
		CROSSPLANE_AXIS=X
		DEPTH_AXIS=Depth
		INPLANE_AXIS_DIR=TARGET_GUN
		CROSSPLANE_AXIS_DIR=LEFT_RIGHT
		DEPTH_AXIS_DIR=UP_DOWN
		ENERGY=6.00
		NOMINAL_DMAX=15.00
		SSD=850.00
		SCD=450.00
		WEDGE_ANGLE=0.00
		FIELD_INPLANE=99.60
		FIELD_CROSSPLANE=99.60
		FIELD_TYPE=RECTANGULAR
		GANTRY=0.00
		GANTRY_UPRIGHT_POSITION=0
		GANTRY_ROTATION=CW
		COLL_ANGLE=0.00
		COLL_OFFSET_INPLANE=0.00
		COLL_OFFSET_CROSSPLANE=0.00
		SCAN_DEVICE=BeamScan
		SCAN_DEVICE_SETUP=BARA_LEFT_RIGHT
		ELECTROMETER=BeamScan
		RANGE_FIELD=LOW
		RANGE_REFERENCE=MEDIUM
		DETECTOR=THIMBLE_CHAMBER
		DETECTOR_RADIUS=2.40
		DETECTOR_NAME=A28MR
		DETECTOR_SN=-
		DETECTOR_CALIBRATION=588000000.00
		DETECTOR_IS_CALIBRATED=0
		DETECTOR_REFERENCE=THIMBLE_CHAMBER
		DETECTOR_REFERENCE_RADIUS=2.75
		DETECTOR_REFERENCE_NAME=A28MR
		DETECTOR_REFERENCE_SN=â€”
		DETECTOR_REFERENCE_IS_CALIBRATED=0
		DETECTOR_REFERENCE_CALIBRATION=303000000.00
		DETECTOR_HV=300.0
		DETECTOR_REFERENCE_HV=300.0
		DETECTOR_ORIENTATION=HORIZONTAL
		FILTER=FFF
		SCAN_SPEED_PROFILE=10.00
		SCAN_PROF_SPEED_DEP=DEPTH
		SCAN_SPEED_PDD=0.00
		SCAN_PDD_SPEED_DEP=ENERGY
		DETECTOR_TYPE=A28MR
		REF_FIELD_DEPTH=220.00
		REF_FIELD_DEFINED=ISOCENTER
		REF_FIELD_INPLANE=100.00
		REF_FIELD_CROSSPLANE=100.00
		REF_SCAN_POSITIONS=-85.00;-84.00;-83.00;-82.00;-81.00;-80.00;-79.00;-78.00;-77.00;-76.00;-75.00;-74.00;-73.00;-72.00;-71.00;-70.00;-69.00;-68.00;-67.00;-66.00;-65.00;-64.00;-63.00;-62.00;-61.00;-60.00;-59.00;-58.00;-57.00;-56.00;-55.00;-54.00;-53.00;-52.00;-51.00;-50.00;-49.00;-48.00;-47.00;-46.00;-45.00;-44.00;-43.00;-42.00;-41.00;-40.00;-39.00;-38.00;-37.00;-36.00;-35.00;-34.00;-33.00;-32.00;-31.00;-30.00;-29.00;-28.00;-27.00;-26.00;-25.00;-24.00;-23.00;-22.00;-21.00;-20.00;-19.00;-18.00;-17.00;-16.00;-15.00;-14.00;-13.00;-12.00;-11.00;-10.00;-9.00;-8.00;-7.00;-6.00;-5.00;-4.00;-3.00;-2.00;-1.00;0.00;1.00;2.00;3.00;4.00;5.00;6.00;7.00;8.00;9.00;10.00;11.00;12.00;13.00;14.00;15.00;16.00;17.00;18.00;19.00;20.00;21.00;22.00;23.00;24.00;25.00;26.00;27.00;28.00;29.00;30.00;31.00;32.00;33.00;34.00;35.00;36.00;37.00;38.00;39.00;40.00;41.00;42.00;43.00;44.00;45.00;46.00;47.00;48.00;49.00;50.00;51.00;52.00;53.00;54.00;55.00;56.00;57.00;58.00;59.00;60.00;61.00;62.00;63.00;64.00;65.00;66.00;67.00;68.00;69.00;70.00;71.00;72.00;73.00;74.00;75.00;76.00;77.00;78.00;79.00;80.00;81.00;82.00;83.00;84.00;85.00;
		REF_OVERSCAN_FACTOR=1.00
		SCAN_CURVETYPE=CROSSPLANE_PROFILE
		SCAN_DEPTH=150.00
		SCAN_OFFAXIS_INPLANE=0.00
		SCAN_OFFAXIS_CROSSPLANE=0.00
		SCAN_ANGLE=0.00
		SCAN_DIAGONAL=NOT_DIAGONAL
		SCAN_DIRECTION=POSITIVE
		MEAS_MEDIUM=WATER
		MEAS_PRESET=MEAS_CONTINUOUS_REFERENCE_SCAN
		MEAS_TIME=0.100
		MEAS_UNIT=A.U.
		INCLINATION_ANGLE=0.00
		PRESSURE=1013.25
		TEMPERATURE=20.00
		NORM_TEMPERATURE=20.00
		CORRECTION_FACTOR=1.0000
		EXPECTED_MAX_DOSE_RATE=3.00
		EPOM_DEPTH_SHIFT=0.2
		EPOM_MODE=SHIFT_PROTOCOL
		CORRECTIONS=SSD_CORR;CAX_CORR;INTERPOLATED_CORR;SYMMETRY_CORR;
		BEGIN_DATA
			-95.50		11.357E+00
			-95.00		11.529E+00
			-94.50		11.687E+00
			-94.00		11.778E+00
			-93.50		11.848E+00
			-93.00		11.958E+00
			-92.50		12.112E+00
			-92.00		12.310E+00
			-91.50		12.493E+00
			-91.00		12.663E+00
			-90.50		12.839E+00
			-90.00		12.977E+00
			-89.50		13.107E+00
			-89.00		13.290E+00
			-88.50		13.481E+00
			-88.00		13.667E+00
			-87.50		13.843E+00
			-87.00		14.008E+00
			-86.50		14.185E+00
			-86.00		14.347E+00
			-85.50		14.505E+00
			-85.00		14.683E+00
			-84.50		14.887E+00
			-84.00		15.087E+00
			-83.50		15.279E+00
			-83.00		15.481E+00
			-82.50		15.727E+00
			-82.00		15.974E+00
			-81.50		16.201E+00
			-81.00		16.428E+00
			-80.50		16.649E+00
			-80.00		16.888E+00
			-79.50		17.132E+00
			-79.00		17.346E+00
			-78.50		17.574E+00
			-78.00		17.821E+00
			-77.50		18.069E+00
			-77.00		18.375E+00
			-76.50		18.674E+00
			-76.00		18.896E+00
			-75.50		19.120E+00
			-75.00		19.417E+00
			-74.50		19.723E+00
			-74.00		20.003E+00
			-73.50		20.287E+00
			-73.00		20.631E+00
			-72.50		20.992E+00
			-72.00		21.350E+00
			-71.50		21.692E+00
			-71.00		22.061E+00
			-70.50		22.470E+00
			-70.00		22.838E+00
			-69.50		23.171E+00
			-69.00		23.563E+00
			-68.50		24.013E+00
			-68.00		24.444E+00
			-67.50		24.894E+00
			-67.00		25.357E+00
			-66.50		25.826E+00
			-66.00		26.299E+00
			-65.50		26.859E+00
			-65.00		27.466E+00
			-64.50		28.125E+00
			-64.00		28.793E+00
			-63.50		29.522E+00
			-63.00		30.324E+00
			-62.50		31.285E+00
			-62.00		32.356E+00
			-61.50		33.641E+00
			-61.00		35.323E+00
			-60.50		37.396E+00
			-60.00		40.263E+00
			-59.50		43.567E+00
			-59.00		48.061E+00
			-58.50		52.978E+00
			-58.00		59.455E+00
			-57.50		66.450E+00
			-57.00		74.799E+00
			-56.50		83.660E+00
			-56.00		93.271E+00
			-55.50		103.13E+00
			-55.00		113.52E+00
			-54.50		124.07E+00
			-54.00		134.44E+00
			-53.50		144.67E+00
			-53.00		154.54E+00
			-52.50		163.61E+00
			-52.00		172.11E+00
			-51.50		179.46E+00
			-51.00		186.36E+00
			-50.50		191.89E+00
			-50.00		196.86E+00
			-49.50		200.58E+00
			-49.00		203.98E+00
			-48.50		206.51E+00
			-48.00		208.74E+00
			-47.50		210.77E+00
			-47.00		212.75E+00
			-46.50		214.17E+00
			-46.00		215.33E+00
			-45.50		216.46E+00
			-45.00		217.51E+00
			-44.50		218.54E+00
			-44.00		219.59E+00
			-43.50		220.61E+00
			-43.00		221.48E+00
			-42.50		222.29E+00
			-42.00		223.18E+00
			-41.50		224.14E+00
			-41.00		224.95E+00
			-40.50		225.58E+00
			-40.00		226.15E+00
			-39.50		226.82E+00
			-39.00		227.47E+00
			-38.50		228.10E+00
			-38.00		228.73E+00
			-37.50		229.36E+00
			-37.00		229.94E+00
			-36.50		230.60E+00
			-36.00		231.40E+00
			-35.50		232.04E+00
			-35.00		232.59E+00
			-34.50		233.11E+00
			-34.00		233.65E+00
			-33.50		234.23E+00
			-33.00		234.80E+00
			-32.50		235.52E+00
			-32.00		236.36E+00
			-31.50		236.93E+00
			-31.00		237.27E+00
			-30.50		237.60E+00
			-30.00		238.12E+00
			-29.50		238.64E+00
			-29.00		239.07E+00
			-28.50		239.63E+00
			-28.00		240.37E+00
			-27.50		241.02E+00
			-27.00		241.38E+00
			-26.50		241.68E+00
			-26.00		242.05E+00
			-25.50		242.52E+00
			-25.00		243.07E+00
			-24.50		243.55E+00
			-24.00		243.83E+00
			-23.50		244.12E+00
			-23.00		244.49E+00
			-22.50		244.90E+00
			-22.00		245.35E+00
			-21.50		245.73E+00
			-21.00		245.91E+00
			-20.50		246.04E+00
			-20.00		246.37E+00
			-19.50		246.90E+00
			-19.00		247.39E+00
			-18.50		247.63E+00
			-18.00		247.89E+00
			-17.50		248.35E+00
			-17.00		248.78E+00
			-16.50		248.96E+00
			-16.00		249.11E+00
			-15.50		249.51E+00
			-15.00		249.93E+00
			-14.50		250.10E+00
			-14.00		250.10E+00
			-13.50		250.19E+00
			-13.00		250.36E+00
			-12.50		250.67E+00
			-12.00		251.08E+00
			-11.50		251.35E+00
			-11.00		251.58E+00
			-10.50		251.81E+00
			-10.00		251.90E+00
			-9.50		251.98E+00
			-9.00		252.07E+00
			-8.50		252.24E+00
			-8.00		252.57E+00
			-7.50		252.87E+00
			-7.00		252.90E+00
			-6.50		252.94E+00
			-6.00		253.24E+00
			-5.50		253.52E+00
			-5.00		253.47E+00
			-4.50		253.48E+00
			-4.00		253.72E+00
			-3.50		253.73E+00
			-3.00		253.60E+00
			-2.50		253.77E+00
			-2.00		253.98E+00
			-1.50		253.86E+00
			-1.00		253.70E+00
			-0.50		253.70E+00
			0.00		253.72E+00
			0.50		253.70E+00
			1.00		253.70E+00
			1.50		253.86E+00
			2.00		253.98E+00
			2.50		253.77E+00
			3.00		253.60E+00
			3.50		253.73E+00
			4.00		253.72E+00
			4.50		253.48E+00
			5.00		253.47E+00
			5.50		253.52E+00
			6.00		253.24E+00
			6.50		252.94E+00
			7.00		252.90E+00
			7.50		252.87E+00
			8.00		252.57E+00
			8.50		252.24E+00
			9.00		252.07E+00
			9.50		251.98E+00
			10.00		251.90E+00
			10.50		251.81E+00
			11.00		251.58E+00
			11.50		251.35E+00
			12.00		251.08E+00
			12.50		250.67E+00
			13.00		250.36E+00
			13.50		250.19E+00
			14.00		250.10E+00
			14.50		250.10E+00
			15.00		249.93E+00
			15.50		249.51E+00
			16.00		249.11E+00
			16.50		248.96E+00
			17.00		248.78E+00
			17.50		248.35E+00
			18.00		247.89E+00
			18.50		247.63E+00
			19.00		247.39E+00
			19.50		246.90E+00
			20.00		246.37E+00
			20.50		246.04E+00
			21.00		245.91E+00
			21.50		245.73E+00
			22.00		245.35E+00
			22.50		244.90E+00
			23.00		244.49E+00
			23.50		244.12E+00
			24.00		243.83E+00
			24.50		243.55E+00
			25.00		243.07E+00
			25.50		242.52E+00
			26.00		242.05E+00
			26.50		241.68E+00
			27.00		241.38E+00
			27.50		241.02E+00
			28.00		240.37E+00
			28.50		239.63E+00
			29.00		239.07E+00
			29.50		238.64E+00
			30.00		238.12E+00
			30.50		237.60E+00
			31.00		237.27E+00
			31.50		236.93E+00
			32.00		236.36E+00
			32.50		235.52E+00
			33.00		234.80E+00
			33.50		234.23E+00
			34.00		233.65E+00
			34.50		233.11E+00
			35.00		232.59E+00
			35.50		232.04E+00
			36.00		231.40E+00
			36.50		230.60E+00
			37.00		229.94E+00
			37.50		229.36E+00
			38.00		228.73E+00
			38.50		228.10E+00
			39.00		227.47E+00
			39.50		226.82E+00
			40.00		226.15E+00
			40.50		225.58E+00
			41.00		224.95E+00
			41.50		224.14E+00
			42.00		223.18E+00
			42.50		222.29E+00
			43.00		221.48E+00
			43.50		220.61E+00
			44.00		219.59E+00
			44.50		218.54E+00
			45.00		217.51E+00
			45.50		216.46E+00
			46.00		215.33E+00
			46.50		214.17E+00
			47.00		212.75E+00
			47.50		210.77E+00
			48.00		208.74E+00
			48.50		206.51E+00
			49.00		203.98E+00
			49.50		200.58E+00
			50.00		196.86E+00
			50.50		191.89E+00
			51.00		186.36E+00
			51.50		179.46E+00
			52.00		172.11E+00
			52.50		163.61E+00
			53.00		154.54E+00
			53.50		144.67E+00
			54.00		134.44E+00
			54.50		124.07E+00
			55.00		113.52E+00
			55.50		103.13E+00
			56.00		93.271E+00
			56.50		83.660E+00
			57.00		74.799E+00
			57.50		66.450E+00
			58.00		59.455E+00
			58.50		52.978E+00
			59.00		48.061E+00
			59.50		43.567E+00
			60.00		40.263E+00
			60.50		37.396E+00
			61.00		35.323E+00
			61.50		33.641E+00
			62.00		32.356E+00
			62.50		31.285E+00
			63.00		30.324E+00
			63.50		29.522E+00
			64.00		28.793E+00
			64.50		28.125E+00
			65.00		27.466E+00
			65.50		26.859E+00
			66.00		26.299E+00
			66.50		25.826E+00
			67.00		25.357E+00
			67.50		24.894E+00
			68.00		24.444E+00
			68.50		24.013E+00
			69.00		23.563E+00
			69.50		23.171E+00
			70.00		22.838E+00
			70.50		22.470E+00
			71.00		22.061E+00
			71.50		21.692E+00
			72.00		21.350E+00
			72.50		20.992E+00
			73.00		20.631E+00
			73.50		20.287E+00
			74.00		20.003E+00
			74.50		19.723E+00
			75.00		19.417E+00
			75.50		19.120E+00
			76.00		18.896E+00
			76.50		18.674E+00
			77.00		18.375E+00
			77.50		18.069E+00
			78.00		17.821E+00
			78.50		17.574E+00
			79.00		17.346E+00
			79.50		17.132E+00
			80.00		16.888E+00
			80.50		16.649E+00
			81.00		16.428E+00
			81.50		16.201E+00
			82.00		15.974E+00
			82.50		15.727E+00
			83.00		15.481E+00
			83.50		15.279E+00
			84.00		15.087E+00
			84.50		14.887E+00
			85.00		14.683E+00
			85.50		14.505E+00
			86.00		14.347E+00
			86.50		14.185E+00
			87.00		14.008E+00
			87.50		13.843E+00
			88.00		13.667E+00
			88.50		13.481E+00
			89.00		13.290E+00
			89.50		13.107E+00
			90.00		12.977E+00
			90.50		12.839E+00
			91.00		12.663E+00
			91.50		12.493E+00
			92.00		12.310E+00
			92.50		12.112E+00
			93.00		11.958E+00
			93.50		11.848E+00
			94.00		11.778E+00
			94.50		11.687E+00
			95.00		11.529E+00
			95.50		11.357E+00
		END_DATA
	END_SCAN  4
	BEGIN_SCAN  5
		TASK_NAME=tba PDD Profiles
		PROGRAM=WaterTankScans
		COMMENT=FBF_SanPietro
		MEAS_DATE=08-Feb-2021 09:38:10
		LINAC=MRIdian
		MODALITY=X
		ISOCENTER=900.00
		INPLANE_AXIS=Y
		CROSSPLANE_AXIS=X
		DEPTH_AXIS=Depth
		INPLANE_AXIS_DIR=TARGET_GUN
		CROSSPLANE_AXIS_DIR=LEFT_RIGHT
		DEPTH_AXIS_DIR=UP_DOWN
		ENERGY=6.00
		NOMINAL_DMAX=15.00
		SSD=850.00
		SCD=450.00
		WEDGE_ANGLE=0.00
		FIELD_INPLANE=99.60
		FIELD_CROSSPLANE=99.60
		FIELD_TYPE=RECTANGULAR
		GANTRY=0.00
		GANTRY_UPRIGHT_POSITION=0
		GANTRY_ROTATION=CW
		COLL_ANGLE=0.00
		COLL_OFFSET_INPLANE=0.00
		COLL_OFFSET_CROSSPLANE=0.00
		SCAN_DEVICE=BeamScan
		SCAN_DEVICE_SETUP=BARA_LEFT_RIGHT
		ELECTROMETER=BeamScan
		RANGE_FIELD=LOW
		RANGE_REFERENCE=MEDIUM
		DETECTOR=THIMBLE_CHAMBER
		DETECTOR_RADIUS=2.40
		DETECTOR_NAME=A28MR
		DETECTOR_SN=-
		DETECTOR_CALIBRATION=588000000.00
		DETECTOR_IS_CALIBRATED=0
		DETECTOR_REFERENCE=THIMBLE_CHAMBER
		DETECTOR_REFERENCE_RADIUS=2.75
		DETECTOR_REFERENCE_NAME=A28MR
		DETECTOR_REFERENCE_SN=â€”
		DETECTOR_REFERENCE_IS_CALIBRATED=0
		DETECTOR_REFERENCE_CALIBRATION=303000000.00
		DETECTOR_HV=300.0
		DETECTOR_REFERENCE_HV=300.0
		DETECTOR_ORIENTATION=HORIZONTAL
		FILTER=FFF
		SCAN_SPEED_PROFILE=10.00
		SCAN_PROF_SPEED_DEP=DEPTH
		SCAN_SPEED_PDD=0.00
		SCAN_PDD_SPEED_DEP=ENERGY
		DETECTOR_TYPE=A28MR
		REF_FIELD_DEPTH=220.00
		REF_FIELD_DEFINED=ISOCENTER
		REF_FIELD_INPLANE=100.00
		REF_FIELD_CROSSPLANE=100.00
		REF_SCAN_POSITIONS=-85.00;-84.00;-83.00;-82.00;-81.00;-80.00;-79.00;-78.00;-77.00;-76.00;-75.00;-74.00;-73.00;-72.00;-71.00;-70.00;-69.00;-68.00;-67.00;-66.00;-65.00;-64.00;-63.00;-62.00;-61.00;-60.00;-59.00;-58.00;-57.00;-56.00;-55.00;-54.00;-53.00;-52.00;-51.00;-50.00;-49.00;-48.00;-47.00;-46.00;-45.00;-44.00;-43.00;-42.00;-41.00;-40.00;-39.00;-38.00;-37.00;-36.00;-35.00;-34.00;-33.00;-32.00;-31.00;-30.00;-29.00;-28.00;-27.00;-26.00;-25.00;-24.00;-23.00;-22.00;-21.00;-20.00;-19.00;-18.00;-17.00;-16.00;-15.00;-14.00;-13.00;-12.00;-11.00;-10.00;-9.00;-8.00;-7.00;-6.00;-5.00;-4.00;-3.00;-2.00;-1.00;0.00;1.00;2.00;3.00;4.00;5.00;6.00;7.00;8.00;9.00;10.00;11.00;12.00;13.00;14.00;15.00;16.00;17.00;18.00;19.00;20.00;21.00;22.00;23.00;24.00;25.00;26.00;27.00;28.00;29.00;30.00;31.00;32.00;33.00;34.00;35.00;36.00;37.00;38.00;39.00;40.00;41.00;42.00;43.00;44.00;45.00;46.00;47.00;48.00;49.00;50.00;51.00;52.00;53.00;54.00;55.00;56.00;57.00;58.00;59.00;60.00;61.00;62.00;63.00;64.00;65.00;66.00;67.00;68.00;69.00;70.00;71.00;72.00;73.00;74.00;75.00;76.00;77.00;78.00;79.00;80.00;81.00;82.00;83.00;84.00;85.00;
		REF_OVERSCAN_FACTOR=1.00
		SCAN_CURVETYPE=CROSSPLANE_PROFILE
		SCAN_DEPTH=200.00
		SCAN_OFFAXIS_INPLANE=0.00
		SCAN_OFFAXIS_CROSSPLANE=0.00
		SCAN_ANGLE=0.00
		SCAN_DIAGONAL=NOT_DIAGONAL
		SCAN_DIRECTION=POSITIVE
		MEAS_MEDIUM=WATER
		MEAS_PRESET=MEAS_CONTINUOUS_REFERENCE_SCAN
		MEAS_TIME=0.100
		MEAS_UNIT=A.U.
		INCLINATION_ANGLE=0.00
		PRESSURE=1013.25
		TEMPERATURE=20.00
		NORM_TEMPERATURE=20.00
		CORRECTION_FACTOR=1.0000
		EXPECTED_MAX_DOSE_RATE=3.00
		EPOM_DEPTH_SHIFT=0.2
		EPOM_MODE=SHIFT_PROTOCOL
		CORRECTIONS=SSD_CORR;SMOOTHED_CORR;CAX_CORR;INTERPOLATED_CORR;SYMMETRY_CORR;
		BEGIN_DATA
			-95.50		11.276E+00
			-95.00		11.217E+00
			-94.50		11.320E+00
			-94.00		11.452E+00
			-93.50		11.592E+00
			-93.00		11.741E+00
			-92.50		11.891E+00
			-92.00		12.033E+00
			-91.50		12.169E+00
			-91.00		12.306E+00
			-90.50		12.409E+00
			-90.00		12.509E+00
			-89.50		12.664E+00
			-89.00		12.838E+00
			-88.50		12.969E+00
			-88.00		13.076E+00
			-87.50		13.251E+00
			-87.00		13.475E+00
			-86.50		13.672E+00
			-86.00		13.828E+00
			-85.50		13.995E+00
			-85.00		14.172E+00
			-84.50		14.356E+00
			-84.00		14.557E+00
			-83.50		14.726E+00
			-83.00		14.848E+00
			-82.50		15.024E+00
			-82.00		15.281E+00
			-81.50		15.509E+00
			-81.00		15.653E+00
			-80.50		15.796E+00
			-80.00		16.000E+00
			-79.50		16.222E+00
			-79.00		16.421E+00
			-78.50		16.629E+00
			-78.00		16.886E+00
			-77.50		17.139E+00
			-77.00		17.367E+00
			-76.50		17.618E+00
			-76.00		17.886E+00
			-75.50		18.131E+00
			-75.00		18.391E+00
			-74.50		18.656E+00
			-74.00		18.877E+00
			-73.50		19.143E+00
			-73.00		19.441E+00
			-72.50		19.720E+00
			-72.00		19.997E+00
			-71.50		20.319E+00
			-71.00		20.665E+00
			-70.50		20.997E+00
			-70.00		21.323E+00
			-69.50		21.678E+00
			-69.00		22.032E+00
			-68.50		22.368E+00
			-68.00		22.732E+00
			-67.50		23.198E+00
			-67.00		23.698E+00
			-66.50		24.222E+00
			-66.00		24.777E+00
			-65.50		25.431E+00
			-65.00		26.224E+00
			-64.50		27.191E+00
			-64.00		28.390E+00
			-63.50		29.799E+00
			-63.00		31.604E+00
			-62.50		33.750E+00
			-62.00		36.511E+00
			-61.50		39.768E+00
			-61.00		43.916E+00
			-60.50		48.521E+00
			-60.00		53.936E+00
			-59.50		59.851E+00
			-59.00		66.307E+00
			-58.50		72.992E+00
			-58.00		80.038E+00
			-57.50		87.323E+00
			-57.00		94.565E+00
			-56.50		101.65E+00
			-56.00		108.61E+00
			-55.50		115.24E+00
			-55.00		121.54E+00
			-54.50		127.15E+00
			-54.00		132.13E+00
			-53.50		136.34E+00
			-53.00		140.26E+00
			-52.50		143.44E+00
			-52.00		146.10E+00
			-51.50		148.15E+00
			-51.00		149.99E+00
			-50.50		151.60E+00
			-50.00		153.10E+00
			-49.50		154.35E+00
			-49.00		155.39E+00
			-48.50		156.29E+00
			-48.00		157.17E+00
			-47.50		157.96E+00
			-47.00		158.70E+00
			-46.50		159.43E+00
			-46.00		160.13E+00
			-45.50		160.78E+00
			-45.00		161.42E+00
			-44.50		162.01E+00
			-44.00		162.58E+00
			-43.50		163.17E+00
			-43.00		163.74E+00
			-42.50		164.32E+00
			-42.00		164.86E+00
			-41.50		165.38E+00
			-41.00		165.85E+00
			-40.50		166.32E+00
			-40.00		166.79E+00
			-39.50		167.27E+00
			-39.00		167.74E+00
			-38.50		168.18E+00
			-38.00		168.60E+00
			-37.50		169.01E+00
			-37.00		169.44E+00
			-36.50		169.88E+00
			-36.00		170.29E+00
			-35.50		170.64E+00
			-35.00		170.99E+00
			-34.50		171.34E+00
			-34.00		171.71E+00
			-33.50		172.10E+00
			-33.00		172.51E+00
			-32.50		172.90E+00
			-32.00		173.27E+00
			-31.50		173.63E+00
			-31.00		173.96E+00
			-30.50		174.29E+00
			-30.00		174.68E+00
			-29.50		175.09E+00
			-29.00		175.51E+00
			-28.50		175.92E+00
			-28.00		176.26E+00
			-27.50		176.57E+00
			-27.00		176.82E+00
			-26.50		177.07E+00
			-26.00		177.32E+00
			-25.50		177.58E+00
			-25.00		177.86E+00
			-24.50		178.14E+00
			-24.00		178.40E+00
			-23.50		178.68E+00
			-23.00		178.94E+00
			-22.50		179.24E+00
			-22.00		179.54E+00
			-21.50		179.85E+00
			-21.00		180.15E+00
			-20.50		180.40E+00
			-20.00		180.65E+00
			-19.50		180.88E+00
			-19.00		181.07E+00
			-18.50		181.29E+00
			-18.00		181.49E+00
			-17.50		181.68E+00
			-17.00		181.90E+00
			-16.50		182.10E+00
			-16.00		182.30E+00
			-15.50		182.51E+00
			-15.00		182.70E+00
			-14.50		182.86E+00
			-14.00		183.01E+00
			-13.50		183.15E+00
			-13.00		183.29E+00
			-12.50		183.45E+00
			-12.00		183.61E+00
			-11.50		183.76E+00
			-11.00		183.93E+00
			-10.50		184.08E+00
			-10.00		184.23E+00
			-9.50		184.36E+00
			-9.00		184.45E+00
			-8.50		184.51E+00
			-8.00		184.55E+00
			-7.50		184.58E+00
			-7.00		184.66E+00
			-6.50		184.76E+00
			-6.00		184.89E+00
			-5.50		185.05E+00
			-5.00		185.18E+00
			-4.50		185.29E+00
			-4.00		185.32E+00
			-3.50		185.33E+00
			-3.00		185.36E+00
			-2.50		185.41E+00
			-2.00		185.51E+00
			-1.50		185.64E+00
			-1.00		185.74E+00
			-0.50		185.82E+00
			0.00		185.86E+00
			0.50		185.82E+00
			1.00		185.74E+00
			1.50		185.64E+00
			2.00		185.51E+00
			2.50		185.41E+00
			3.00		185.36E+00
			3.50		185.33E+00
			4.00		185.32E+00
			4.50		185.29E+00
			5.00		185.18E+00
			5.50		185.05E+00
			6.00		184.89E+00
			6.50		184.76E+00
			7.00		184.66E+00
			7.50		184.58E+00
			8.00		184.55E+00
			8.50		184.51E+00
			9.00		184.45E+00
			9.50		184.36E+00
			10.00		184.23E+00
			10.50		184.08E+00
			11.00		183.93E+00
			11.50		183.76E+00
			12.00		183.61E+00
			12.50		183.45E+00
			13.00		183.29E+00
			13.50		183.15E+00
			14.00		183.01E+00
			14.50		182.86E+00
			15.00		182.70E+00
			15.50		182.51E+00
			16.00		182.30E+00
			16.50		182.10E+00
			17.00		181.90E+00
			17.50		181.68E+00
			18.00		181.49E+00
			18.50		181.29E+00
			19.00		181.07E+00
			19.50		180.88E+00
			20.00		180.65E+00
			20.50		180.40E+00
			21.00		180.15E+00
			21.50		179.85E+00
			22.00		179.54E+00
			22.50		179.24E+00
			23.00		178.94E+00
			23.50		178.68E+00
			24.00		178.40E+00
			24.50		178.14E+00
			25.00		177.86E+00
			25.50		177.58E+00
			26.00		177.32E+00
			26.50		177.07E+00
			27.00		176.82E+00
			27.50		176.57E+00
			28.00		176.26E+00
			28.50		175.92E+00
			29.00		175.51E+00
			29.50		175.09E+00
			30.00		174.68E+00
			30.50		174.29E+00
			31.00		173.96E+00
			31.50		173.63E+00
			32.00		173.27E+00
			32.50		172.90E+00
			33.00		172.51E+00
			33.50		172.10E+00
			34.00		171.71E+00
			34.50		171.34E+00
			35.00		170.99E+00
			35.50		170.64E+00
			36.00		170.29E+00
			36.50		169.88E+00
			37.00		169.44E+00
			37.50		169.01E+00
			38.00		168.60E+00
			38.50		168.18E+00
			39.00		167.74E+00
			39.50		167.27E+00
			40.00		166.79E+00
			40.50		166.32E+00
			41.00		165.85E+00
			41.50		165.38E+00
			42.00		164.86E+00
			42.50		164.32E+00
			43.00		163.74E+00
			43.50		163.17E+00
			44.00		162.58E+00
			44.50		162.01E+00
			45.00		161.42E+00
			45.50		160.78E+00
			46.00		160.13E+00
			46.50		159.43E+00
			47.00		158.70E+00
			47.50		157.96E+00
			48.00		157.17E+00
			48.50		156.29E+00
			49.00		155.39E+00
			49.50		154.35E+00
			50.00		153.10E+00
			50.50		151.60E+00
			51.00		149.99E+00
			51.50		148.15E+00
			52.00		146.10E+00
			52.50		143.44E+00
			53.00		140.26E+00
			53.50		136.34E+00
			54.00		132.13E+00
			54.50		127.15E+00
			55.00		121.54E+00
			55.50		115.24E+00
			56.00		108.61E+00
			56.50		101.65E+00
			57.00		94.565E+00
			57.50		87.323E+00
			58.00		80.038E+00
			58.50		72.992E+00
			59.00		66.307E+00
			59.50		59.851E+00
			60.00		53.936E+00
			60.50		48.521E+00
			61.00		43.916E+00
			61.50		39.768E+00
			62.00		36.511E+00
			62.50		33.750E+00
			63.00		31.604E+00
			63.50		29.799E+00
			64.00		28.390E+00
			64.50		27.191E+00
			65.00		26.224E+00
			65.50		25.431E+00
			66.00		24.777E+00
			66.50		24.222E+00
			67.00		23.698E+00
			67.50		23.198E+00
			68.00		22.732E+00
			68.50		22.368E+00
			69.00		22.032E+00
			69.50		21.678E+00
			70.00		21.323E+00
			70.50		20.997E+00
			71.00		20.665E+00
			71.50		20.319E+00
			72.00		19.997E+00
			72.50		19.720E+00
			73.00		19.441E+00
			73.50		19.143E+00
			74.00		18.877E+00
			74.50		18.656E+00
			75.00		18.391E+00
			75.50		18.131E+00
			76.00		17.886E+00
			76.50		17.618E+00
			77.00		17.367E+00
			77.50		17.139E+00
			78.00		16.886E+00
			78.50		16.629E+00
			79.00		16.421E+00
			79.50		16.222E+00
			80.00		16.000E+00
			80.50		15.796E+00
			81.00		15.653E+00
			81.50		15.509E+00
			82.00		15.281E+00
			82.50		15.024E+00
			83.00		14.848E+00
			83.50		14.726E+00
			84.00		14.557E+00
			84.50		14.356E+00
			85.00		14.172E+00
			85.50		13.995E+00
			86.00		13.828E+00
			86.50		13.672E+00
			87.00		13.475E+00
			87.50		13.251E+00
			88.00		13.076E+00
			88.50		12.969E+00
			89.00		12.838E+00
			89.50		12.664E+00
			90.00		12.509E+00
			90.50		12.409E+00
			91.00		12.306E+00
			91.50		12.169E+00
			92.00		12.033E+00
			92.50		11.891E+00
			93.00		11.741E+00
			93.50		11.592E+00
			94.00		11.452E+00
			94.50		11.320E+00
			95.00		11.217E+00
			95.50		11.276E+00
		END_DATA
	END_SCAN  5
	BEGIN_SCAN  6
		TASK_NAME=tba PDD Profiles
		PROGRAM=WaterTankScans
		COMMENT=FBF_SanPietro
		MEAS_DATE=08-Feb-2021 09:38:10
		LINAC=MRIdian
		MODALITY=X
		ISOCENTER=900.00
		INPLANE_AXIS=Y
		CROSSPLANE_AXIS=X
		DEPTH_AXIS=Depth
		INPLANE_AXIS_DIR=TARGET_GUN
		CROSSPLANE_AXIS_DIR=LEFT_RIGHT
		DEPTH_AXIS_DIR=UP_DOWN
		ENERGY=6.00
		NOMINAL_DMAX=15.00
		SSD=850.00
		SCD=450.00
		WEDGE_ANGLE=0.00
		FIELD_INPLANE=99.60
		FIELD_CROSSPLANE=99.60
		FIELD_TYPE=RECTANGULAR
		GANTRY=0.00
		GANTRY_UPRIGHT_POSITION=0
		GANTRY_ROTATION=CW
		COLL_ANGLE=0.00
		COLL_OFFSET_INPLANE=0.00
		COLL_OFFSET_CROSSPLANE=0.00
		SCAN_DEVICE=BeamScan
		SCAN_DEVICE_SETUP=BARA_LEFT_RIGHT
		ELECTROMETER=BeamScan
		RANGE_FIELD=LOW
		RANGE_REFERENCE=MEDIUM
		DETECTOR=THIMBLE_CHAMBER
		DETECTOR_RADIUS=2.40
		DETECTOR_NAME=A28MR
		DETECTOR_SN=-
		DETECTOR_CALIBRATION=588000000.00
		DETECTOR_IS_CALIBRATED=0
		DETECTOR_REFERENCE=THIMBLE_CHAMBER
		DETECTOR_REFERENCE_RADIUS=2.75
		DETECTOR_REFERENCE_NAME=A28MR
		DETECTOR_REFERENCE_SN=â€”
		DETECTOR_REFERENCE_IS_CALIBRATED=0
		DETECTOR_REFERENCE_CALIBRATION=303000000.00
		DETECTOR_HV=300.0
		DETECTOR_REFERENCE_HV=300.0
		DETECTOR_ORIENTATION=HORIZONTAL
		FILTER=FFF
		SCAN_SPEED_PROFILE=10.00
		SCAN_PROF_SPEED_DEP=DEPTH
		SCAN_SPEED_PDD=0.00
		SCAN_PDD_SPEED_DEP=ENERGY
		DETECTOR_TYPE=A28MR
		REF_FIELD_DEPTH=220.00
		REF_FIELD_DEFINED=ISOCENTER
		REF_FIELD_INPLANE=100.00
		REF_FIELD_CROSSPLANE=100.00
		REF_SCAN_POSITIONS=-85.00;-84.00;-83.00;-82.00;-81.00;-80.00;-79.00;-78.00;-77.00;-76.00;-75.00;-74.00;-73.00;-72.00;-71.00;-70.00;-69.00;-68.00;-67.00;-66.00;-65.00;-64.00;-63.00;-62.00;-61.00;-60.00;-59.00;-58.00;-57.00;-56.00;-55.00;-54.00;-53.00;-52.00;-51.00;-50.00;-49.00;-48.00;-47.00;-46.00;-45.00;-44.00;-43.00;-42.00;-41.00;-40.00;-39.00;-38.00;-37.00;-36.00;-35.00;-34.00;-33.00;-32.00;-31.00;-30.00;-29.00;-28.00;-27.00;-26.00;-25.00;-24.00;-23.00;-22.00;-21.00;-20.00;-19.00;-18.00;-17.00;-16.00;-15.00;-14.00;-13.00;-12.00;-11.00;-10.00;-9.00;-8.00;-7.00;-6.00;-5.00;-4.00;-3.00;-2.00;-1.00;0.00;1.00;2.00;3.00;4.00;5.00;6.00;7.00;8.00;9.00;10.00;11.00;12.00;13.00;14.00;15.00;16.00;17.00;18.00;19.00;20.00;21.00;22.00;23.00;24.00;25.00;26.00;27.00;28.00;29.00;30.00;31.00;32.00;33.00;34.00;35.00;36.00;37.00;38.00;39.00;40.00;41.00;42.00;43.00;44.00;45.00;46.00;47.00;48.00;49.00;50.00;51.00;52.00;53.00;54.00;55.00;56.00;57.00;58.00;59.00;60.00;61.00;62.00;63.00;64.00;65.00;66.00;67.00;68.00;69.00;70.00;71.00;72.00;73.00;74.00;75.00;76.00;77.00;78.00;79.00;80.00;81.00;82.00;83.00;84.00;85.00;
		REF_OVERSCAN_FACTOR=1.00
		SCAN_CURVETYPE=CROSSPLANE_PROFILE
		SCAN_DEPTH=250.00
		SCAN_OFFAXIS_INPLANE=0.00
		SCAN_OFFAXIS_CROSSPLANE=0.00
		SCAN_ANGLE=0.00
		SCAN_DIAGONAL=NOT_DIAGONAL
		SCAN_DIRECTION=POSITIVE
		MEAS_MEDIUM=WATER
		MEAS_PRESET=MEAS_CONTINUOUS_REFERENCE_SCAN
		MEAS_TIME=0.100
		MEAS_UNIT=A.U.
		INCLINATION_ANGLE=0.00
		PRESSURE=1013.25
		TEMPERATURE=20.00
		NORM_TEMPERATURE=20.00
		CORRECTION_FACTOR=1.0000
		EXPECTED_MAX_DOSE_RATE=3.00
		EPOM_DEPTH_SHIFT=0.2
		EPOM_MODE=SHIFT_PROTOCOL
		CORRECTIONS=SSD_CORR;SMOOTHED_CORR;CAX_CORR;INTERPOLATED_CORR;SYMMETRY_CORR;
		BEGIN_DATA
			-95.00		10.260E+00
			-94.50		10.290E+00
			-94.00		10.410E+00
			-93.50		10.549E+00
			-93.00		10.660E+00
			-92.50		10.767E+00
			-92.00		10.902E+00
			-91.50		11.049E+00
			-91.00		11.183E+00
			-90.50		11.295E+00
			-90.00		11.392E+00
			-89.50		11.476E+00
			-89.00		11.579E+00
			-88.50		11.721E+00
			-88.00		11.851E+00
			-87.50		11.958E+00
			-87.00		12.085E+00
			-86.50		12.222E+00
			-86.00		12.375E+00
			-85.50		12.535E+00
			-85.00		12.691E+00
			-84.50		12.831E+00
			-84.00		12.958E+00
			-83.50		13.123E+00
			-83.00		13.350E+00
			-82.50		13.568E+00
			-82.00		13.712E+00
			-81.50		13.816E+00
			-81.00		13.924E+00
			-80.50		14.069E+00
			-80.00		14.272E+00
			-79.50		14.469E+00
			-79.00		14.639E+00
			-78.50		14.841E+00
			-78.00		15.045E+00
			-77.50		15.239E+00
			-77.00		15.439E+00
			-76.50		15.608E+00
			-76.00		15.773E+00
			-75.50		16.013E+00
			-75.00		16.294E+00
			-74.50		16.560E+00
			-74.00		16.797E+00
			-73.50		17.025E+00
			-73.00		17.250E+00
			-72.50		17.478E+00
			-72.00		17.735E+00
			-71.50		18.030E+00
			-71.00		18.323E+00
			-70.50		18.656E+00
			-70.00		19.036E+00
			-69.50		19.425E+00
			-69.00		19.826E+00
			-68.50		20.290E+00
			-68.00		20.861E+00
			-67.50		21.527E+00
			-67.00		22.282E+00
			-66.50		23.221E+00
			-66.00		24.451E+00
			-65.50		25.858E+00
			-65.00		27.624E+00
			-64.50		29.766E+00
			-64.00		32.533E+00
			-63.50		35.639E+00
			-63.00		39.264E+00
			-62.50		43.216E+00
			-62.00		47.508E+00
			-61.50		52.028E+00
			-61.00		56.910E+00
			-60.50		62.014E+00
			-60.00		67.266E+00
			-59.50		72.493E+00
			-59.00		77.449E+00
			-58.50		82.133E+00
			-58.00		86.635E+00
			-57.50		90.879E+00
			-57.00		94.794E+00
			-56.50		98.109E+00
			-56.00		101.12E+00
			-55.50		103.65E+00
			-55.00		105.93E+00
			-54.50		107.80E+00
			-54.00		109.37E+00
			-53.50		110.60E+00
			-53.00		111.71E+00
			-52.50		112.69E+00
			-52.00		113.62E+00
			-51.50		114.46E+00
			-51.00		115.23E+00
			-50.50		115.88E+00
			-50.00		116.42E+00
			-49.50		116.90E+00
			-49.00		117.35E+00
			-48.50		117.78E+00
			-48.00		118.22E+00
			-47.50		118.67E+00
			-47.00		119.09E+00
			-46.50		119.51E+00
			-46.00		119.92E+00
			-45.50		120.31E+00
			-45.00		120.71E+00
			-44.50		121.10E+00
			-44.00		121.47E+00
			-43.50		121.84E+00
			-43.00		122.20E+00
			-42.50		122.57E+00
			-42.00		122.93E+00
			-41.50		123.31E+00
			-41.00		123.68E+00
			-40.50		124.01E+00
			-40.00		124.33E+00
			-39.50		124.64E+00
			-39.00		124.93E+00
			-38.50		125.24E+00
			-38.00		125.57E+00
			-37.50		125.89E+00
			-37.00		126.21E+00
			-36.50		126.49E+00
			-36.00		126.75E+00
			-35.50		126.99E+00
			-35.00		127.21E+00
			-34.50		127.43E+00
			-34.00		127.67E+00
			-33.50		127.93E+00
			-33.00		128.19E+00
			-32.50		128.50E+00
			-32.00		128.80E+00
			-31.50		129.10E+00
			-31.00		129.39E+00
			-30.50		129.65E+00
			-30.00		129.90E+00
			-29.50		130.14E+00
			-29.00		130.37E+00
			-28.50		130.58E+00
			-28.00		130.79E+00
			-27.50		131.01E+00
			-27.00		131.23E+00
			-26.50		131.45E+00
			-26.00		131.67E+00
			-25.50		131.88E+00
			-25.00		132.04E+00
			-24.50		132.21E+00
			-24.00		132.36E+00
			-23.50		132.53E+00
			-23.00		132.71E+00
			-22.50		132.91E+00
			-22.00		133.09E+00
			-21.50		133.27E+00
			-21.00		133.46E+00
			-20.50		133.62E+00
			-20.00		133.79E+00
			-19.50		133.95E+00
			-19.00		134.08E+00
			-18.50		134.26E+00
			-18.00		134.43E+00
			-17.50		134.60E+00
			-17.00		134.75E+00
			-16.50		134.89E+00
			-16.00		135.01E+00
			-15.50		135.10E+00
			-15.00		135.23E+00
			-14.50		135.31E+00
			-14.00		135.39E+00
			-13.50		135.51E+00
			-13.00		135.60E+00
			-12.50		135.70E+00
			-12.00		135.79E+00
			-11.50		135.87E+00
			-11.00		135.93E+00
			-10.50		136.01E+00
			-10.00		136.11E+00
			-9.50		136.23E+00
			-9.00		136.35E+00
			-8.50		136.48E+00
			-8.00		136.58E+00
			-7.50		136.66E+00
			-7.00		136.75E+00
			-6.50		136.85E+00
			-6.00		136.93E+00
			-5.50		137.04E+00
			-5.00		137.10E+00
			-4.50		137.13E+00
			-4.00		137.18E+00
			-3.50		137.18E+00
			-3.00		137.20E+00
			-2.50		137.24E+00
			-2.00		137.24E+00
			-1.50		137.26E+00
			-1.00		137.29E+00
			-0.50		137.29E+00
			0.00		137.29E+00
			0.50		137.29E+00
			1.00		137.29E+00
			1.50		137.26E+00
			2.00		137.24E+00
			2.50		137.24E+00
			3.00		137.20E+00
			3.50		137.18E+00
			4.00		137.18E+00
			4.50		137.13E+00
			5.00		137.10E+00
			5.50		137.04E+00
			6.00		136.93E+00
			6.50		136.85E+00
			7.00		136.75E+00
			7.50		136.66E+00
			8.00		136.58E+00
			8.50		136.48E+00
			9.00		136.35E+00
			9.50		136.23E+00
			10.00		136.11E+00
			10.50		136.01E+00
			11.00		135.93E+00
			11.50		135.87E+00
			12.00		135.79E+00
			12.50		135.70E+00
			13.00		135.60E+00
			13.50		135.51E+00
			14.00		135.39E+00
			14.50		135.31E+00
			15.00		135.23E+00
			15.50		135.10E+00
			16.00		135.01E+00
			16.50		134.89E+00
			17.00		134.75E+00
			17.50		134.60E+00
			18.00		134.43E+00
			18.50		134.26E+00
			19.00		134.08E+00
			19.50		133.95E+00
			20.00		133.79E+00
			20.50		133.62E+00
			21.00		133.46E+00
			21.50		133.27E+00
			22.00		133.09E+00
			22.50		132.91E+00
			23.00		132.71E+00
			23.50		132.53E+00
			24.00		132.36E+00
			24.50		132.21E+00
			25.00		132.04E+00
			25.50		131.88E+00
			26.00		131.67E+00
			26.50		131.45E+00
			27.00		131.23E+00
			27.50		131.01E+00
			28.00		130.79E+00
			28.50		130.58E+00
			29.00		130.37E+00
			29.50		130.14E+00
			30.00		129.90E+00
			30.50		129.65E+00
			31.00		129.39E+00
			31.50		129.10E+00
			32.00		128.80E+00
			32.50		128.50E+00
			33.00		128.19E+00
			33.50		127.93E+00
			34.00		127.67E+00
			34.50		127.43E+00
			35.00		127.21E+00
			35.50		126.99E+00
			36.00		126.75E+00
			36.50		126.49E+00
			37.00		126.21E+00
			37.50		125.89E+00
			38.00		125.57E+00
			38.50		125.24E+00
			39.00		124.93E+00
			39.50		124.64E+00
			40.00		124.33E+00
			40.50		124.01E+00
			41.00		123.68E+00
			41.50		123.31E+00
			42.00		122.93E+00
			42.50		122.57E+00
			43.00		122.20E+00
			43.50		121.84E+00
			44.00		121.47E+00
			44.50		121.10E+00
			45.00		120.71E+00
			45.50		120.31E+00
			46.00		119.92E+00
			46.50		119.51E+00
			47.00		119.09E+00
			47.50		118.67E+00
			48.00		118.22E+00
			48.50		117.78E+00
			49.00		117.35E+00
			49.50		116.90E+00
			50.00		116.42E+00
			50.50		115.88E+00
			51.00		115.23E+00
			51.50		114.46E+00
			52.00		113.62E+00
			52.50		112.69E+00
			53.00		111.71E+00
			53.50		110.60E+00
			54.00		109.37E+00
			54.50		107.80E+00
			55.00		105.93E+00
			55.50		103.65E+00
			56.00		101.12E+00
			56.50		98.109E+00
			57.00		94.794E+00
			57.50		90.879E+00
			58.00		86.635E+00
			58.50		82.133E+00
			59.00		77.449E+00
			59.50		72.493E+00
			60.00		67.266E+00
			60.50		62.014E+00
			61.00		56.910E+00
			61.50		52.028E+00
			62.00		47.508E+00
			62.50		43.216E+00
			63.00		39.264E+00
			63.50		35.639E+00
			64.00		32.533E+00
			64.50		29.766E+00
			65.00		27.624E+00
			65.50		25.858E+00
			66.00		24.451E+00
			66.50		23.221E+00
			67.00		22.282E+00
			67.50		21.527E+00
			68.00		20.861E+00
			68.50		20.290E+00
			69.00		19.826E+00
			69.50		19.425E+00
			70.00		19.036E+00
			70.50		18.656E+00
			71.00		18.323E+00
			71.50		18.030E+00
			72.00		17.735E+00
			72.50		17.478E+00
			73.00		17.250E+00
			73.50		17.025E+00
			74.00		16.797E+00
			74.50		16.560E+00
			75.00		16.294E+00
			75.50		16.013E+00
			76.00		15.773E+00
			76.50		15.608E+00
			77.00		15.439E+00
			77.50		15.239E+00
			78.00		15.045E+00
			78.50		14.841E+00
			79.00		14.639E+00
			79.50		14.469E+00
			80.00		14.272E+00
			80.50		14.069E+00
			81.00		13.924E+00
			81.50		13.816E+00
			82.00		13.712E+00
			82.50		13.568E+00
			83.00		13.350E+00
			83.50		13.123E+00
			84.00		12.958E+00
			84.50		12.831E+00
			85.00		12.691E+00
			85.50		12.535E+00
			86.00		12.375E+00
			86.50		12.222E+00
			87.00		12.085E+00
			87.50		11.958E+00
			88.00		11.851E+00
			88.50		11.721E+00
			89.00		11.579E+00
			89.50		11.476E+00
			90.00		11.392E+00
			90.50		11.295E+00
			91.00		11.183E+00
			91.50		11.049E+00
			92.00		10.902E+00
			92.50		10.767E+00
			93.00		10.660E+00
			93.50		10.549E+00
			94.00		10.410E+00
			94.50		10.290E+00
			95.00		10.260E+00
		END_DATA
	END_SCAN  6
	BEGIN_SCAN  7
		TASK_NAME=tba PDD Profiles
		PROGRAM=WaterTankScans
		COMMENT=FBF_SanPietro
		MEAS_DATE=08-Feb-2021 09:38:10
		LINAC=MRIdian
		MODALITY=X
		ISOCENTER=900.00
		INPLANE_AXIS=Y
		CROSSPLANE_AXIS=X
		DEPTH_AXIS=Depth
		INPLANE_AXIS_DIR=TARGET_GUN
		CROSSPLANE_AXIS_DIR=LEFT_RIGHT
		DEPTH_AXIS_DIR=UP_DOWN
		ENERGY=6.00
		NOMINAL_DMAX=15.00
		SSD=850.00
		SCD=450.00
		WEDGE_ANGLE=0.00
		FIELD_INPLANE=99.60
		FIELD_CROSSPLANE=99.60
		FIELD_TYPE=RECTANGULAR
		GANTRY=0.00
		GANTRY_UPRIGHT_POSITION=0
		GANTRY_ROTATION=CW
		COLL_ANGLE=0.00
		COLL_OFFSET_INPLANE=0.00
		COLL_OFFSET_CROSSPLANE=0.00
		SCAN_DEVICE=BeamScan
		SCAN_DEVICE_SETUP=BARA_LEFT_RIGHT
		ELECTROMETER=BeamScan
		RANGE_FIELD=LOW
		RANGE_REFERENCE=MEDIUM
		DETECTOR=THIMBLE_CHAMBER
		DETECTOR_RADIUS=2.40
		DETECTOR_NAME=A28MR
		DETECTOR_SN=-
		DETECTOR_CALIBRATION=588000000.00
		DETECTOR_IS_CALIBRATED=0
		DETECTOR_REFERENCE=THIMBLE_CHAMBER
		DETECTOR_REFERENCE_RADIUS=2.75
		DETECTOR_REFERENCE_NAME=A28MR
		DETECTOR_REFERENCE_SN=â€”
		DETECTOR_REFERENCE_IS_CALIBRATED=0
		DETECTOR_REFERENCE_CALIBRATION=303000000.00
		DETECTOR_HV=300.0
		DETECTOR_REFERENCE_HV=300.0
		DETECTOR_ORIENTATION=HORIZONTAL
		FILTER=FFF
		SCAN_SPEED_PROFILE=10.00
		SCAN_PROF_SPEED_DEP=DEPTH
		SCAN_SPEED_PDD=0.00
		SCAN_PDD_SPEED_DEP=ENERGY
		DETECTOR_TYPE=A28MR
		REF_FIELD_DEPTH=220.00
		REF_FIELD_DEFINED=ISOCENTER
		REF_FIELD_INPLANE=100.00
		REF_FIELD_CROSSPLANE=100.00
		REF_SCAN_POSITIONS=-85.00;-84.00;-83.00;-82.00;-81.00;-80.00;-79.00;-78.00;-77.00;-76.00;-75.00;-74.00;-73.00;-72.00;-71.00;-70.00;-69.00;-68.00;-67.00;-66.00;-65.00;-64.00;-63.00;-62.00;-61.00;-60.00;-59.00;-58.00;-57.00;-56.00;-55.00;-54.00;-53.00;-52.00;-51.00;-50.00;-49.00;-48.00;-47.00;-46.00;-45.00;-44.00;-43.00;-42.00;-41.00;-40.00;-39.00;-38.00;-37.00;-36.00;-35.00;-34.00;-33.00;-32.00;-31.00;-30.00;-29.00;-28.00;-27.00;-26.00;-25.00;-24.00;-23.00;-22.00;-21.00;-20.00;-19.00;-18.00;-17.00;-16.00;-15.00;-14.00;-13.00;-12.00;-11.00;-10.00;-9.00;-8.00;-7.00;-6.00;-5.00;-4.00;-3.00;-2.00;-1.00;0.00;1.00;2.00;3.00;4.00;5.00;6.00;7.00;8.00;9.00;10.00;11.00;12.00;13.00;14.00;15.00;16.00;17.00;18.00;19.00;20.00;21.00;22.00;23.00;24.00;25.00;26.00;27.00;28.00;29.00;30.00;31.00;32.00;33.00;34.00;35.00;36.00;37.00;38.00;39.00;40.00;41.00;42.00;43.00;44.00;45.00;46.00;47.00;48.00;49.00;50.00;51.00;52.00;53.00;54.00;55.00;56.00;57.00;58.00;59.00;60.00;61.00;62.00;63.00;64.00;65.00;66.00;67.00;68.00;69.00;70.00;71.00;72.00;73.00;74.00;75.00;76.00;77.00;78.00;79.00;80.00;81.00;82.00;83.00;84.00;85.00;
		REF_OVERSCAN_FACTOR=1.00
		SCAN_CURVETYPE=CROSSPLANE_PROFILE
		SCAN_DEPTH=285.00
		SCAN_OFFAXIS_INPLANE=0.00
		SCAN_OFFAXIS_CROSSPLANE=0.00
		SCAN_ANGLE=0.00
		SCAN_DIAGONAL=NOT_DIAGONAL
		SCAN_DIRECTION=POSITIVE
		MEAS_MEDIUM=WATER
		MEAS_PRESET=MEAS_CONTINUOUS_REFERENCE_SCAN
		MEAS_TIME=0.100
		MEAS_UNIT=A.U.
		INCLINATION_ANGLE=0.00
		PRESSURE=1013.25
		TEMPERATURE=20.00
		NORM_TEMPERATURE=20.00
		CORRECTION_FACTOR=1.0000
		EXPECTED_MAX_DOSE_RATE=3.00
		EPOM_DEPTH_SHIFT=0.2
		EPOM_MODE=SHIFT_PROTOCOL
		CORRECTIONS=SSD_CORR;SMOOTHED_CORR;CAX_CORR;INTERPOLATED_CORR;SYMMETRY_CORR;
		BEGIN_DATA
			-95.00		9.2636E+00
			-94.50		9.3135E+00
			-94.00		9.4011E+00
			-93.50		9.4977E+00
			-93.00		9.6030E+00
			-92.50		9.6933E+00
			-92.00		9.7842E+00
			-91.50		9.9099E+00
			-91.00		10.009E+00
			-90.50		10.069E+00
			-90.00		10.182E+00
			-89.50		10.346E+00
			-89.00		10.458E+00
			-88.50		10.543E+00
			-88.00		10.663E+00
			-87.50		10.777E+00
			-87.00		10.890E+00
			-86.50		11.018E+00
			-86.00		11.145E+00
			-85.50		11.298E+00
			-85.00		11.450E+00
			-84.50		11.569E+00
			-84.00		11.683E+00
			-83.50		11.823E+00
			-83.00		11.955E+00
			-82.50		12.056E+00
			-82.00		12.177E+00
			-81.50		12.339E+00
			-81.00		12.504E+00
			-80.50		12.672E+00
			-80.00		12.814E+00
			-79.50		12.909E+00
			-79.00		13.037E+00
			-78.50		13.224E+00
			-78.00		13.462E+00
			-77.50		13.681E+00
			-77.00		13.845E+00
			-76.50		14.007E+00
			-76.00		14.167E+00
			-75.50		14.343E+00
			-75.00		14.585E+00
			-74.50		14.824E+00
			-74.00		15.011E+00
			-73.50		15.202E+00
			-73.00		15.428E+00
			-72.50		15.638E+00
			-72.00		15.913E+00
			-71.50		16.249E+00
			-71.00		16.607E+00
			-70.50		17.006E+00
			-70.00		17.491E+00
			-69.50		17.983E+00
			-69.00		18.500E+00
			-68.50		19.256E+00
			-68.00		20.110E+00
			-67.50		21.325E+00
			-67.00		22.649E+00
			-66.50		24.417E+00
			-66.00		26.306E+00
			-65.50		28.740E+00
			-65.00		31.319E+00
			-64.50		34.396E+00
			-64.00		37.612E+00
			-63.50		41.321E+00
			-63.00		45.153E+00
			-62.50		49.126E+00
			-62.00		53.222E+00
			-61.50		57.301E+00
			-61.00		61.309E+00
			-60.50		65.171E+00
			-60.00		68.824E+00
			-59.50		72.308E+00
			-59.00		75.474E+00
			-58.50		78.523E+00
			-58.00		80.949E+00
			-57.50		83.196E+00
			-57.00		85.026E+00
			-56.50		86.777E+00
			-56.00		88.042E+00
			-55.50		89.184E+00
			-55.00		90.133E+00
			-54.50		91.054E+00
			-54.00		91.807E+00
			-53.50		92.499E+00
			-53.00		93.077E+00
			-52.50		93.632E+00
			-52.00		94.121E+00
			-51.50		94.568E+00
			-51.00		94.999E+00
			-50.50		95.390E+00
			-50.00		95.777E+00
			-49.50		96.133E+00
			-49.00		96.490E+00
			-48.50		96.843E+00
			-48.00		97.191E+00
			-47.50		97.535E+00
			-47.00		97.872E+00
			-46.50		98.184E+00
			-46.00		98.493E+00
			-45.50		98.781E+00
			-45.00		99.061E+00
			-44.50		99.338E+00
			-44.00		99.600E+00
			-43.50		99.865E+00
			-43.00		100.13E+00
			-42.50		100.40E+00
			-42.00		100.67E+00
			-41.50		100.94E+00
			-41.00		101.21E+00
			-40.50		101.47E+00
			-40.00		101.71E+00
			-39.50		101.97E+00
			-39.00		102.22E+00
			-38.50		102.47E+00
			-38.00		102.73E+00
			-37.50		102.97E+00
			-37.00		103.20E+00
			-36.50		103.42E+00
			-36.00		103.60E+00
			-35.50		103.78E+00
			-35.00		103.96E+00
			-34.50		104.15E+00
			-34.00		104.37E+00
			-33.50		104.60E+00
			-33.00		104.84E+00
			-32.50		105.07E+00
			-32.00		105.29E+00
			-31.50		105.46E+00
			-31.00		105.64E+00
			-30.50		105.81E+00
			-30.00		105.98E+00
			-29.50		106.16E+00
			-29.00		106.35E+00
			-28.50		106.55E+00
			-28.00		106.74E+00
			-27.50		106.91E+00
			-27.00		107.07E+00
			-26.50		107.21E+00
			-26.00		107.35E+00
			-25.50		107.48E+00
			-25.00		107.60E+00
			-24.50		107.74E+00
			-24.00		107.88E+00
			-23.50		108.02E+00
			-23.00		108.18E+00
			-22.50		108.32E+00
			-22.00		108.47E+00
			-21.50		108.61E+00
			-21.00		108.74E+00
			-20.50		108.88E+00
			-20.00		109.00E+00
			-19.50		109.13E+00
			-19.00		109.24E+00
			-18.50		109.37E+00
			-18.00		109.49E+00
			-17.50		109.63E+00
			-17.00		109.76E+00
			-16.50		109.89E+00
			-16.00		109.98E+00
			-15.50		110.07E+00
			-15.00		110.11E+00
			-14.50		110.15E+00
			-14.00		110.19E+00
			-13.50		110.25E+00
			-13.00		110.33E+00
			-12.50		110.43E+00
			-12.00		110.54E+00
			-11.50		110.65E+00
			-11.00		110.76E+00
			-10.50		110.88E+00
			-10.00		110.99E+00
			-9.50		111.07E+00
			-9.00		111.15E+00
			-8.50		111.21E+00
			-8.00		111.25E+00
			-7.50		111.29E+00
			-7.00		111.34E+00
			-6.50		111.37E+00
			-6.00		111.42E+00
			-5.50		111.45E+00
			-5.00		111.48E+00
			-4.50		111.51E+00
			-4.00		111.54E+00
			-3.50		111.59E+00
			-3.00		111.65E+00
			-2.50		111.72E+00
			-2.00		111.78E+00
			-1.50		111.83E+00
			-1.00		111.85E+00
			-0.50		111.88E+00
			0.00		111.88E+00
			0.50		111.88E+00
			1.00		111.85E+00
			1.50		111.83E+00
			2.00		111.78E+00
			2.50		111.72E+00
			3.00		111.65E+00
			3.50		111.59E+00
			4.00		111.54E+00
			4.50		111.51E+00
			5.00		111.48E+00
			5.50		111.45E+00
			6.00		111.42E+00
			6.50		111.37E+00
			7.00		111.34E+00
			7.50		111.29E+00
			8.00		111.25E+00
			8.50		111.21E+00
			9.00		111.15E+00
			9.50		111.07E+00
			10.00		110.99E+00
			10.50		110.88E+00
			11.00		110.76E+00
			11.50		110.65E+00
			12.00		110.54E+00
			12.50		110.43E+00
			13.00		110.33E+00
			13.50		110.25E+00
			14.00		110.19E+00
			14.50		110.15E+00
			15.00		110.11E+00
			15.50		110.07E+00
			16.00		109.98E+00
			16.50		109.89E+00
			17.00		109.76E+00
			17.50		109.63E+00
			18.00		109.49E+00
			18.50		109.37E+00
			19.00		109.24E+00
			19.50		109.13E+00
			20.00		109.00E+00
			20.50		108.88E+00
			21.00		108.74E+00
			21.50		108.61E+00
			22.00		108.47E+00
			22.50		108.32E+00
			23.00		108.18E+00
			23.50		108.02E+00
			24.00		107.88E+00
			24.50		107.74E+00
			25.00		107.60E+00
			25.50		107.48E+00
			26.00		107.35E+00
			26.50		107.21E+00
			27.00		107.07E+00
			27.50		106.91E+00
			28.00		106.74E+00
			28.50		106.55E+00
			29.00		106.35E+00
			29.50		106.16E+00
			30.00		105.98E+00
			30.50		105.81E+00
			31.00		105.64E+00
			31.50		105.46E+00
			32.00		105.29E+00
			32.50		105.07E+00
			33.00		104.84E+00
			33.50		104.60E+00
			34.00		104.37E+00
			34.50		104.15E+00
			35.00		103.96E+00
			35.50		103.78E+00
			36.00		103.60E+00
			36.50		103.42E+00
			37.00		103.20E+00
			37.50		102.97E+00
			38.00		102.73E+00
			38.50		102.47E+00
			39.00		102.22E+00
			39.50		101.97E+00
			40.00		101.71E+00
			40.50		101.47E+00
			41.00		101.21E+00
			41.50		100.94E+00
			42.00		100.67E+00
			42.50		100.40E+00
			43.00		100.13E+00
			43.50		99.865E+00
			44.00		99.600E+00
			44.50		99.338E+00
			45.00		99.061E+00
			45.50		98.781E+00
			46.00		98.493E+00
			46.50		98.184E+00
			47.00		97.872E+00
			47.50		97.535E+00
			48.00		97.191E+00
			48.50		96.843E+00
			49.00		96.490E+00
			49.50		96.133E+00
			50.00		95.777E+00
			50.50		95.390E+00
			51.00		94.999E+00
			51.50		94.568E+00
			52.00		94.121E+00
			52.50		93.632E+00
			53.00		93.077E+00
			53.50		92.499E+00
			54.00		91.807E+00
			54.50		91.054E+00
			55.00		90.133E+00
			55.50		89.184E+00
			56.00		88.042E+00
			56.50		86.777E+00
			57.00		85.026E+00
			57.50		83.196E+00
			58.00		80.949E+00
			58.50		78.523E+00
			59.00		75.474E+00
			59.50		72.308E+00
			60.00		68.824E+00
			60.50		65.171E+00
			61.00		61.309E+00
			61.50		57.301E+00
			62.00		53.222E+00
			62.50		49.126E+00
			63.00		45.153E+00
			63.50		41.321E+00
			64.00		37.612E+00
			64.50		34.396E+00
			65.00		31.319E+00
			65.50		28.740E+00
			66.00		26.306E+00
			66.50		24.417E+00
			67.00		22.649E+00
			67.50		21.325E+00
			68.00		20.110E+00
			68.50		19.256E+00
			69.00		18.500E+00
			69.50		17.983E+00
			70.00		17.491E+00
			70.50		17.006E+00
			71.00		16.607E+00
			71.50		16.249E+00
			72.00		15.913E+00
			72.50		15.638E+00
			73.00		15.428E+00
			73.50		15.202E+00
			74.00		15.011E+00
			74.50		14.824E+00
			75.00		14.585E+00
			75.50		14.343E+00
			76.00		14.167E+00
			76.50		14.007E+00
			77.00		13.845E+00
			77.50		13.681E+00
			78.00		13.462E+00
			78.50		13.224E+00
			79.00		13.037E+00
			79.50		12.909E+00
			80.00		12.814E+00
			80.50		12.672E+00
			81.00		12.504E+00
			81.50		12.339E+00
			82.00		12.177E+00
			82.50		12.056E+00
			83.00		11.955E+00
			83.50		11.823E+00
			84.00		11.683E+00
			84.50		11.569E+00
			85.00		11.450E+00
			85.50		11.298E+00
			86.00		11.145E+00
			86.50		11.018E+00
			87.00		10.890E+00
			87.50		10.777E+00
			88.00		10.663E+00
			88.50		10.543E+00
			89.00		10.458E+00
			89.50		10.346E+00
			90.00		10.182E+00
			90.50		10.069E+00
			91.00		10.009E+00
			91.50		9.9099E+00
			92.00		9.7842E+00
			92.50		9.6933E+00
			93.00		9.6030E+00
			93.50		9.4977E+00
			94.00		9.4011E+00
			94.50		9.3135E+00
			95.00		9.2636E+00
		END_DATA
	END_SCAN  7
END_SCAN_DATA
